%OpenBCI Raw EEG Data
%
%Sample Rate = 250.0 Hz
%First Column = SampleIndex
%Last Column = Timestamp 
%Other Columns = EEG data in microvolts followed by Accel Data (in G) interleaved with Aux Data
0, 0.00, 0.00, 0.00, 0.00, 0.00, 0.00, 0.00, 0.00, 0.426, 0.368, -0.318, 14:41:06.878
1, 40359.23, 43441.98, 43574.39, 41415.05, -92474.69, -187500.02, 43472.06, -102353.59, 0.000, 0.000, 0.000, 14:41:07.363
2, 27074.78, 43411.87, 43545.53, 27029.23, -92236.64, -187500.02, 43448.71, -102009.91, 0.000, 0.000, 0.000, 14:41:07.363
3, 2677.45, 43409.95, 43545.09, 5224.14, -92094.77, -187500.02, 43449.96, -101882.06, 0.000, 0.000, 0.000, 14:41:07.364
4, 12600.97, 43421.59, 43556.86, 18632.10, -92237.73, -187500.02, 43459.34, -102159.09, 0.000, 0.000, 0.000, 14:41:07.364
5, 40271.94, 43411.11, 43543.95, 41698.61, -92438.34, -187500.02, 43440.88, -102396.02, 0.000, 0.000, 0.000, 14:41:07.364
6, 35695.13, 43381.11, 43514.24, 35598.13, -92227.97, -187500.02, 43415.07, -102068.37, 0.000, 0.000, 0.000, 14:41:07.364
7, 11607.86, 43374.74, 43509.99, 13255.39, -92061.00, -187500.02, 43414.86, -101891.02, 0.000, 0.000, 0.000, 14:41:07.365
8, 10005.94, 43386.23, 43521.68, 15416.69, -92141.64, -187500.02, 43424.95, -102084.59, 0.394, 0.644, -0.030, 14:41:07.365
9, 38118.38, 43384.18, 43517.59, 40219.77, -92404.79, -187500.02, 43414.80, -102424.01, 0.000, 0.000, 0.000, 14:41:07.365
10, 38380.98, 43352.30, 43485.18, 38127.92, -92238.29, -187500.02, 43384.27, -102140.95, 0.000, 0.000, 0.000, 14:41:07.365
11, 14917.64, 43341.11, 43476.33, 15952.73, -92042.09, -187500.02, 43380.62, -101912.57, 0.000, 0.000, 0.000, 14:41:07.366
12, 5151.41, 43354.25, 43489.99, 10140.63, -92063.05, -187500.02, 43393.72, -102024.00, 0.000, 0.000, 0.000, 14:41:07.366
13, 33337.45, 43356.73, 43491.22, 36891.46, -92331.97, -187500.02, 43389.45, -102401.01, 0.000, 0.000, 0.000, 14:41:07.366
14, 39872.80, 43322.51, 43455.16, 39745.63, -92233.91, -187500.02, 43353.42, -102198.68, 0.000, 0.000, 0.000, 14:41:07.366
15, 18476.71, 43307.20, 43442.20, 19412.18, -92022.17, -187500.02, 43346.29, -101932.52, 0.000, 0.000, 0.000, 14:41:07.373
16, 3042.07, 43315.09, 43450.80, 7371.18, -91983.35, -187500.02, 43354.85, -101960.61, 0.000, 0.000, 0.000, 14:41:07.374
17, 26859.60, 43323.67, 43459.10, 31841.47, -92220.73, -187500.02, 43358.89, -102328.70, 0.000, 0.000, 0.000, 14:41:07.374
18, 41598.07, 43296.07, 43429.06, 41946.00, -92207.05, -187500.02, 43326.04, -102235.89, 0.380, 0.774, 0.108, 14:41:07.374
19, 27189.40, 43271.70, 43406.33, 28338.48, -92010.38, -187500.02, 43310.04, -101961.34, 0.000, 0.000, 0.000, 14:41:07.374
20, 9023.15, 43277.09, 43412.59, 12624.47, -91939.70, -187500.02, 43317.19, -101935.17, 0.000, 0.000, 0.000, 14:41:07.375
21, 21284.00, 43292.51, 43428.52, 27326.97, -92104.18, -187500.02, 43330.78, -102241.05, 0.000, 0.000, 0.000, 14:41:07.375
22, 39260.21, 43273.85, 43407.78, 40416.00, -92121.77, -187500.02, 43305.65, -102215.46, 0.000, 0.000, 0.000, 14:41:07.376
23, 22472.49, 43248.03, 43382.93, 23658.07, -91932.77, -187500.02, 43286.39, -101926.21, 0.000, 0.000, 0.000, 14:41:07.377
24, 2464.03, 43250.11, 43385.58, 5765.70, -91844.19, -187500.02, 43289.72, -101859.49, 0.000, 0.000, 0.000, 14:41:07.377
25, 10280.64, 43265.04, 43400.87, 17197.61, -91979.62, -187500.02, 43304.58, -102132.65, 0.000, 0.000, 0.000, 14:41:07.377
26, 36274.82, 43255.63, 43390.86, 39198.97, -92066.66, -187500.02, 43289.85, -102218.50, 0.000, 0.000, 0.000, 14:41:07.377
27, 24856.23, 43228.94, 43363.88, 26149.73, -91896.31, -187500.02, 43267.12, -101931.30, 0.000, 0.000, 0.000, 14:41:07.377
28, 2549.44, 43231.13, 43366.59, 5456.98, -91792.04, -187500.02, 43270.96, -101828.13, 0.362, 0.830, 0.164, 14:41:07.378
29, 2148.81, 43246.67, 43382.03, 8626.23, -91877.20, -187500.02, 43286.57, -102038.64, 0.000, 0.000, 0.000, 14:41:07.378
30, 27265.55, 43241.10, 43379.23, 33661.37, -91996.67, -187500.02, 43281.63, -102200.38, 0.000, 0.000, 0.000, 14:41:07.378
31, 21884.88, 43218.75, 43355.50, 24136.93, -91846.20, -187500.02, 43259.36, -101925.16, 0.000, 0.000, 0.000, 14:41:07.378
32, -1618.74, 43218.68, 43354.27, 1024.34, -91724.54, -187500.02, 43258.65, -101784.56, 0.000, 0.000, 0.000, 14:41:07.378
33, -6941.18, 43233.10, 43368.66, -1163.92, -91768.80, -187500.02, 43273.20, -101935.62, 0.000, 0.000, 0.000, 14:41:07.378
34, 17391.82, 43235.61, 43371.19, 25287.44, -91928.92, -187500.02, 43276.66, -102174.63, 0.000, 0.000, 0.000, 14:41:07.379
35, 19790.59, 43211.20, 43346.94, 23003.23, -91806.05, -187500.02, 43252.41, -101931.23, 0.000, 0.000, 0.000, 14:41:07.379
36, -3664.77, 43211.80, 43347.21, -1175.90, -91674.00, -187500.02, 43251.65, -101755.77, 0.000, 0.000, 0.000, 14:41:07.379
37, -13240.70, 43223.63, 43359.03, -8184.47, -91681.60, -187500.02, 43263.68, -101844.38, 0.000, 0.000, 0.000, 14:41:07.379
38, 8008.61, 43234.00, 43368.33, 16281.14, -91857.87, -187500.02, 43274.05, -102132.52, 0.368, 0.872, 0.212, 14:41:07.379
39, 17588.72, 43214.08, 43348.59, 21713.11, -91781.42, -187500.02, 43254.58, -101951.04, 0.000, 0.000, 0.000, 14:41:07.379
40, -5043.47, 43208.74, 43343.79, -2671.88, -91632.47, -187500.02, 43248.34, -101736.60, 0.000, 0.000, 0.000, 14:41:07.379
41, -18155.00, 43216.79, 43352.19, -13647.39, -91605.60, -187500.02, 43257.17, -101767.69, 0.000, 0.000, 0.000, 14:41:07.380
42, 3513.14, 43230.60, 43366.63, 12353.72, -91805.79, -187500.02, 43270.65, -102098.65, 0.000, 0.000, 0.000, 14:41:07.380
43, 25160.55, 43207.91, 43345.48, 29852.27, -91803.39, -187500.02, 43248.77, -102020.45, 0.000, 0.000, 0.000, 14:41:07.380
44, 1649.76, 43200.11, 43335.18, 3629.97, -91630.44, -187500.02, 43239.79, -101760.85, 0.000, 0.000, 0.000, 14:41:07.380
45, -16054.83, 43206.61, 43341.95, -11916.70, -91570.67, -187500.02, 43246.80, -101737.45, 0.000, 0.000, 0.000, 14:41:07.380
46, 7121.91, 43220.16, 43355.52, 15041.92, -91792.27, -187500.02, 43258.16, -102096.20, 0.000, 0.000, 0.000, 14:41:07.380
47, 36146.97, 43203.64, 43337.30, 37800.13, -91874.02, -187500.02, 43236.18, -102141.16, 0.000, 0.000, 0.000, 14:41:07.380
48, 13443.59, 43179.99, 43314.68, 14324.67, -91656.32, -187500.02, 43218.46, -101820.04, 0.372, 0.896, 0.226, 14:41:07.381
49, -10354.53, 43182.59, 43317.84, -7051.42, -91552.16, -187500.02, 43222.39, -101732.71, 0.000, 0.000, 0.000, 14:41:07.381
50, 2113.31, 43198.93, 43334.29, 9798.18, -91713.61, -187500.02, 43238.11, -102028.06, 0.000, 0.000, 0.000, 14:41:07.381
51, 34839.42, 43190.97, 43325.39, 37815.02, -91848.27, -187500.02, 43224.65, -102170.29, 0.000, 0.000, 0.000, 14:41:07.381
52, 19462.40, 43165.13, 43299.75, 20331.88, -91653.41, -187500.02, 43203.26, -101857.77, 0.000, 0.000, 0.000, 14:41:07.381
53, -6390.34, 43164.37, 43299.64, -3572.61, -91528.34, -187500.02, 43204.18, -101729.52, 0.000, 0.000, 0.000, 14:41:07.381
54, -714.90, 43179.79, 43315.20, 6227.29, -91646.26, -187500.02, 43218.97, -101967.60, 0.000, 0.000, 0.000, 14:41:07.381
55, 34735.04, 43178.34, 43312.29, 37940.25, -91863.48, -187500.02, 43210.70, -102235.02, 0.000, 0.000, 0.000, 14:41:07.386
56, 27799.47, 43148.23, 43282.12, 27922.78, -91679.84, -187500.02, 43183.97, -101930.14, 0.000, 0.000, 0.000, 14:41:07.386
57, -1377.02, 43144.63, 43280.08, 748.43, -91515.28, -187500.02, 43184.71, -101742.77, 0.000, 0.000, 0.000, 14:41:07.386
58, -1423.40, 43154.69, 43290.34, 4841.10, -91589.27, -187500.02, 43193.98, -101916.27, 0.368, 0.896, 0.224, 14:41:07.386
59, 34611.00, 43156.32, 43290.19, 37738.55, -91881.34, -187500.02, 43188.11, -102296.24, 0.000, 0.000, 0.000, 14:41:07.386
60, 35288.39, 43123.06, 43256.17, 35038.28, -91726.88, -187500.02, 43156.39, -102028.65, 0.000, 0.000, 0.000, 14:41:07.387
61, 7864.86, 43111.42, 43246.76, 9265.04, -91518.52, -187500.02, 43151.32, -101777.59, 0.000, 0.000, 0.000, 14:41:07.387
62, -867.52, 43121.88, 43257.62, 4445.69, -91531.15, -187500.02, 43161.46, -101868.20, 0.000, 0.000, 0.000, 14:41:07.387
63, 31475.68, 43129.16, 43263.57, 35264.97, -91832.56, -187500.02, 43162.07, -102286.05, 0.000, 0.000, 0.000, 14:41:07.387
64, 39435.14, 43101.40, 43234.40, 39403.87, -91755.98, -187500.02, 43132.81, -102115.26, 0.000, 0.000, 0.000, 14:41:07.387
65, 17061.82, 43083.95, 43219.06, 18238.31, -91531.87, -187500.02, 43123.44, -101827.15, 0.000, 0.000, 0.000, 14:41:07.387
66, 1054.20, 43090.00, 43225.79, 5430.15, -91485.15, -187500.02, 43130.02, -101836.24, 0.000, 0.000, 0.000, 14:41:07.388
67, 27125.38, 43100.75, 43235.83, 31572.17, -91763.34, -187500.02, 43135.25, -102248.07, 0.000, 0.000, 0.000, 14:41:07.389
68, 41420.33, 43076.97, 43209.95, 41568.68, -91776.10, -187500.02, 43106.95, -102197.40, 0.380, 0.894, 0.226, 14:41:07.389
69, 24677.06, 43055.14, 43189.94, 25532.93, -91541.86, -187500.02, 43093.40, -101877.64, 0.000, 0.000, 0.000, 14:41:07.394
70, 4341.00, 43058.87, 43194.72, 7963.26, -91452.54, -187500.02, 43099.17, -101822.72, 0.000, 0.000, 0.000, 14:41:07.396
71, 19676.71, 43074.56, 43210.48, 25409.33, -91645.99, -187500.02, 43112.22, -102155.23, 0.000, 0.000, 0.000, 14:41:07.397
72, 40734.55, 43057.91, 43191.39, 41603.77, -91727.78, -187500.02, 43088.44, -102211.55, 0.000, 0.000, 0.000, 14:41:07.397
73, 28501.02, 43030.13, 43164.82, 29470.21, -91523.48, -187500.02, 43067.77, -101901.24, 0.000, 0.000, 0.000, 14:41:07.398
74, 7007.41, 43032.32, 43168.10, 10169.55, -91416.66, -187500.02, 43072.64, -101808.08, 0.000, 0.000, 0.000, 14:41:07.398
75, 16035.90, 43047.98, 43183.93, 21656.00, -91568.19, -187500.02, 43086.00, -102091.74, 0.000, 0.000, 0.000, 14:41:07.398
76, 40244.96, 43039.27, 43172.93, 41423.84, -91722.28, -187500.02, 43069.64, -102264.01, 0.000, 0.000, 0.000, 14:41:07.398
77, 32158.28, 43004.51, 43138.60, 32708.40, -91515.10, -187500.02, 43040.25, -101939.24, 0.000, 0.000, 0.000, 14:41:07.398
78, 9281.63, 42999.34, 43134.95, 11936.97, -91375.47, -187500.02, 43039.49, -101793.17, 0.384, 0.896, 0.236, 14:41:07.398
79, 8226.69, 43015.19, 43151.14, 14278.09, -91450.98, -187500.02, 43055.05, -101985.69, 0.000, 0.000, 0.000, 14:41:07.398
80, 34735.91, 43015.95, 43151.36, 38177.56, -91614.86, -187500.02, 43050.13, -102209.47, 0.000, 0.000, 0.000, 14:41:07.398
81, 32048.51, 42983.77, 43118.32, 32822.66, -91464.12, -187500.02, 43019.53, -101936.38, 0.000, 0.000, 0.000, 14:41:07.398
82, 8329.65, 42977.33, 43113.03, 10844.31, -91324.42, -187500.02, 43017.52, -101768.65, 0.000, 0.000, 0.000, 14:41:07.398
83, 1305.03, 42990.45, 43126.21, 6769.47, -91351.29, -187500.02, 43030.62, -101890.98, 0.000, 0.000, 0.000, 14:41:07.399
84, 27382.16, 42997.29, 43133.37, 32735.49, -91537.56, -187500.02, 43034.21, -102173.38, 0.000, 0.000, 0.000, 14:41:07.399
85, 33253.18, 42968.50, 43103.41, 34312.12, -91435.30, -187500.02, 43004.11, -101957.66, 0.000, 0.000, 0.000, 14:41:07.399
86, 8979.77, 42956.72, 43092.46, 11288.90, -91281.21, -187500.02, 42997.02, -101752.89, 0.000, 0.000, 0.000, 14:41:07.399
87, -446.97, 42965.89, 43101.89, 4689.42, -91280.05, -187500.02, 43005.89, -101823.91, 0.000, 0.000, 0.000, 14:41:07.399
88, 28708.49, 42977.33, 43112.58, 33177.39, -91547.02, -187500.02, 43011.75, -102211.82, 0.384, 0.894, 0.230, 14:41:07.399
89, 40651.03, 42950.33, 43083.57, 40872.87, -91510.19, -187500.02, 42981.11, -102084.46, 0.000, 0.000, 0.000, 14:41:07.399
90, 23332.87, 42929.03, 43064.19, 24721.88, -91316.23, -187500.02, 42968.21, -101819.93, 0.000, 0.000, 0.000, 14:41:07.399
91, 6704.74, 42935.09, 43070.94, 10569.22, -91260.18, -187500.02, 42975.07, -101815.01, 0.000, 0.000, 0.000, 14:41:07.399
92, 26574.64, 42948.18, 43083.39, 30792.86, -91516.73, -187500.02, 42982.92, -102207.84, 0.000, 0.000, 0.000, 14:41:07.400
93, 42424.88, 42926.19, 43059.20, 42714.96, -91576.91, -187500.02, 42954.82, -102211.59, 0.000, 0.000, 0.000, 14:41:07.400
94, 35556.50, 42897.54, 43031.60, 36297.55, -91359.34, -187500.02, 42932.58, -101903.84, 0.000, 0.000, 0.000, 14:41:07.400
95, 18053.26, 42893.40, 43028.98, 21050.67, -91260.16, -187500.02, 42933.95, -101835.33, 0.000, 0.000, 0.000, 14:41:07.400
96, 27918.89, 42911.50, 43046.91, 31622.38, -91469.15, -187500.02, 42946.82, -102183.30, 0.000, 0.000, 0.000, 14:41:07.400
97, 42374.82, 42894.58, 43027.66, 42714.11, -91602.38, -187500.02, 42923.08, -102301.00, 0.000, 0.000, 0.000, 14:41:07.400
98, 40617.50, 42865.37, 42998.65, 40920.88, -91387.38, -187500.02, 42896.59, -101978.78, 0.000, 0.000, 0.000, 14:41:07.400
99, 26847.55, 42853.81, 42989.18, 29125.39, -91257.79, -187500.02, 42893.91, -101860.56, 0.398, 0.908, 0.232, 14:41:07.400
100, 28615.28, 42867.38, 43002.83, 32103.34, -91402.63, -187500.02, 42904.08, -102136.45, 0.000, 0.000, 0.000, 14:41:07.400
101, 41985.16, 42858.13, 42991.32, 42458.05, -91602.41, -187500.02, 42887.07, -102364.95, 0.000, 0.000, 0.000, 14:41:07.400
102, 42382.19, 42829.23, 42961.97, 42509.69, -91410.16, -187500.02, 42858.26, -102055.96, 0.000, 0.000, 0.000, 14:41:07.401
103, 33980.15, 42814.52, 42949.37, 35619.96, -91256.85, -187500.02, 42852.18, -101894.60, 0.000, 0.000, 0.000, 14:41:07.401
104, 29224.81, 42824.96, 42960.68, 32875.79, -91316.20, -187500.02, 42863.92, -102069.39, 0.000, 0.000, 0.000, 14:41:07.401
105, 41060.67, 42827.91, 42961.41, 41921.14, -91515.05, -187500.02, 42857.81, -102338.93, 0.000, 0.000, 0.000, 14:41:07.401
106, 42292.16, 42797.06, 42929.86, 42425.02, -91367.71, -187500.02, 42826.25, -102072.52, 0.000, 0.000, 0.000, 14:41:07.401
107, 33004.54, 42776.16, 42910.88, 34590.08, -91202.53, -187500.02, 42813.98, -101876.84, 0.000, 0.000, 0.000, 14:41:07.401
108, 24407.86, 42780.75, 42916.42, 28511.66, -91208.62, -187500.02, 42821.09, -101975.56, 0.000, 0.000, 0.000, 14:41:07.401
109, 38691.96, 42789.91, 42923.91, 40419.84, -91422.14, -187500.02, 42821.45, -102294.74, 0.390, 0.908, 0.236, 14:41:07.401
110, 41687.01, 42758.02, 42890.67, 41838.20, -91315.03, -187500.02, 42787.70, -102083.77, 0.000, 0.000, 0.000, 14:41:07.401
111, 28478.78, 42736.85, 42871.61, 29979.37, -91121.42, -187500.02, 42775.47, -101841.52, 0.000, 0.000, 0.000, 14:41:07.402
112, 16739.64, 42743.75, 42879.29, 20879.84, -91096.43, -187500.02, 42783.72, -101888.48, 0.000, 0.000, 0.000, 14:41:07.402
113, 35312.63, 42755.38, 42889.78, 37837.77, -91357.74, -187500.02, 42787.85, -102279.50, 0.000, 0.000, 0.000, 14:41:07.402
114, 41936.70, 42726.39, 42859.09, 42028.79, -91313.82, -187500.02, 42755.64, -102154.66, 0.000, 0.000, 0.000, 14:41:07.402
115, 30080.87, 42702.67, 42837.07, 31360.70, -91082.33, -187500.02, 42740.60, -101849.27, 0.000, 0.000, 0.000, 14:41:07.402
116, 15744.55, 42707.10, 42842.48, 19516.83, -91025.30, -187500.02, 42747.13, -101837.95, 0.000, 0.000, 0.000, 14:41:07.402
117, 32796.02, 42721.20, 42855.85, 35616.45, -91326.63, -187500.02, 42754.48, -102275.55, 0.000, 0.000, 0.000, 14:41:07.402
118, 42639.28, 42697.55, 42830.50, 42736.04, -91399.56, -187500.02, 42726.16, -102302.45, 0.000, 0.000, 0.000, 14:41:07.402
119, 39953.50, 42672.79, 42805.96, 40370.58, -91142.01, -187500.02, 42704.66, -101952.12, 0.380, 0.898, 0.234, 14:41:07.402
120, 27113.65, 42663.85, 42799.07, 29907.15, -91023.41, -187500.02, 42704.23, -101860.00, 0.000, 0.000, 0.000, 14:41:07.402
121, 32389.08, 42679.43, 42814.56, 35529.68, -91198.60, -187500.02, 42715.05, -102173.15, 0.000, 0.000, 0.000, 14:41:07.839
122, 42332.75, 42664.58, 42797.31, 42581.14, -91315.32, -187500.02, 42693.06, -102284.10, 0.000, 0.000, 0.000, 14:41:07.840
123, 40283.12, 42634.01, 42767.22, 40698.86, -91099.09, -187500.02, 42665.52, -101956.52, 0.000, 0.000, 0.000, 14:41:07.841
124, 26653.22, 42622.27, 42757.41, 29299.04, -90964.80, -187500.02, 42662.64, -101827.52, 0.000, 0.000, 0.000, 14:41:07.841
125, 28259.82, 42637.45, 42772.81, 32145.03, -91092.03, -187500.02, 42674.89, -102081.15, 0.000, 0.000, 0.000, 14:41:07.841
126, 41590.96, 42630.65, 42763.78, 42165.09, -91282.78, -187500.02, 42659.84, -102309.01, 0.000, 0.000, 0.000, 14:41:07.841
127, 40655.16, 42597.98, 42731.04, 40932.75, -91076.90, -187500.02, 42628.75, -101984.16, 0.000, 0.000, 0.000, 14:41:07.841
128, 26202.26, 42584.27, 42719.26, 28425.65, -90909.99, -187500.02, 42624.04, -101801.77, 0.000, 0.000, 0.000, 14:41:07.842
129, 24166.35, 42597.48, 42732.89, 28348.96, -90994.77, -187500.02, 42635.82, -101994.27, 0.378, 0.898, 0.238, 14:41:07.842
130, 40550.98, 42596.52, 42730.03, 41475.18, -91264.88, -187500.02, 42626.47, -102340.48, 0.000, 0.000, 0.000, 14:41:07.842
131, 41776.10, 42564.65, 42697.48, 41910.59, -91092.14, -187500.02, 42594.27, -102052.38, 0.000, 0.000, 0.000, 14:41:07.842
132, 30414.64, 42545.98, 42680.59, 32134.77, -90886.48, -187500.02, 42584.23, -101811.16, 0.000, 0.000, 0.000, 14:41:07.842
133, 23196.71, 42553.50, 42688.86, 27373.69, -90909.41, -187500.02, 42592.79, -101920.06, 0.000, 0.000, 0.000, 14:41:07.842
134, 39160.52, 42560.52, 42694.38, 40526.68, -91212.86, -187500.02, 42591.38, -102331.40, 0.000, 0.000, 0.000, 14:41:07.843
135, 42381.39, 42530.88, 42663.76, 42445.87, -91111.66, -187500.02, 42559.73, -102129.45, 0.000, 0.000, 0.000, 14:41:07.843
136, 35435.38, 42510.09, 42644.20, 36656.43, -90879.93, -187500.02, 42545.83, -101840.83, 0.000, 0.000, 0.000, 14:41:07.843
137, 24522.86, 42511.30, 42646.77, 28501.80, -90838.05, -187500.02, 42551.93, -101862.69, 0.000, 0.000, 0.000, 14:41:07.843
138, 37170.52, 42527.88, 42662.17, 39239.80, -91092.41, -187500.02, 42560.34, -102246.87, 0.000, 0.000, 0.000, 14:41:07.843
139, 42455.55, 42501.44, 42634.03, 42519.18, -91071.38, -187500.02, 42529.80, -102150.42, 0.384, 0.904, 0.240, 14:41:07.843
140, 37481.30, 42475.13, 42609.11, 38533.47, -90848.51, -187500.02, 42509.42, -101847.66, 0.000, 0.000, 0.000, 14:41:07.843
141, 24992.78, 42469.27, 42604.64, 28813.21, -90769.91, -187500.02, 42510.20, -101810.25, 0.000, 0.000, 0.000, 14:41:07.843
142, 34475.15, 42484.77, 42619.37, 37299.90, -90987.96, -187500.02, 42518.96, -102166.71, 0.000, 0.000, 0.000, 14:41:07.844
143, 42372.34, 42467.48, 42600.10, 42495.02, -91059.20, -187500.02, 42495.79, -102198.77, 0.000, 0.000, 0.000, 14:41:07.844
144, 40415.37, 42442.86, 42576.14, 40985.14, -90843.48, -187500.02, 42474.19, -101883.20, 0.000, 0.000, 0.000, 14:41:07.844
145, 29149.15, 42432.59, 42567.96, 32362.38, -90732.74, -187500.02, 42473.01, -101793.06, 0.000, 0.000, 0.000, 14:41:07.845
146, 32862.61, 42447.21, 42582.22, 36130.01, -90896.38, -187500.02, 42483.16, -102092.57, 0.000, 0.000, 0.000, 14:41:07.845
147, 42078.52, 42434.74, 42567.64, 42342.34, -91037.52, -187500.02, 42463.42, -102236.92, 0.000, 0.000, 0.000, 14:41:07.845
148, 41291.88, 42407.00, 42539.95, 41658.35, -90827.45, -187500.02, 42437.02, -101912.69, 0.000, 0.000, 0.000, 14:41:07.846
149, 31028.31, 42390.73, 42525.73, 33836.81, -90684.98, -187500.02, 42430.07, -101770.64, 0.380, 0.904, 0.242, 14:41:07.846
150, 30463.24, 42403.29, 42538.48, 34348.10, -90789.50, -187500.02, 42441.13, -101998.49, 0.000, 0.000, 0.000, 14:41:07.846
151, 41446.21, 42399.52, 42532.44, 42001.70, -90987.60, -187500.02, 42428.71, -102242.89, 0.000, 0.000, 0.000, 14:41:07.849
152, 41748.72, 42368.20, 42500.86, 41986.16, -90806.55, -187500.02, 42397.39, -101941.34, 0.000, 0.000, 0.000, 14:41:07.849
153, 32596.40, 42351.39, 42486.24, 35026.16, -90642.47, -187500.02, 42389.66, -101757.14, 0.000, 0.000, 0.000, 14:41:07.849
154, 28640.47, 42362.32, 42497.53, 32724.41, -90707.27, -187500.02, 42401.05, -101925.92, 0.000, 0.000, 0.000, 14:41:07.850
155, 40705.57, 42365.34, 42498.67, 41516.82, -90973.88, -187500.02, 42395.29, -102277.58, 0.000, 0.000, 0.000, 14:41:07.850
156, 42293.66, 42331.70, 42464.27, 42364.11, -90832.44, -187500.02, 42360.13, -102021.54, 0.000, 0.000, 0.000, 14:41:07.850
157, 37954.42, 42315.49, 42449.80, 39416.00, -90639.70, -187500.02, 42350.05, -101788.48, 0.000, 0.000, 0.000, 14:41:07.850
158, 31067.22, 42315.18, 42450.70, 34907.84, -90641.71, -187500.02, 42354.95, -101872.70, 0.000, 0.000, 0.000, 14:41:07.850
159, 40009.31, 42326.07, 42459.89, 41125.00, -90930.20, -187500.02, 42356.91, -102276.69, 0.378, 0.906, 0.240, 14:41:07.850
160, 42324.17, 42296.18, 42428.95, 42357.52, -90863.13, -187500.02, 42324.68, -102112.38, 0.000, 0.000, 0.000, 14:41:07.850
161, 41001.17, 42276.11, 42409.50, 41590.83, -90641.98, -187500.02, 42306.78, -101829.47, 0.000, 0.000, 0.000, 14:41:07.850
162, 34817.54, 42269.47, 42405.01, 37806.63, -90592.94, -187500.02, 42308.34, -101840.24, 0.000, 0.000, 0.000, 14:41:07.850
163, 39689.16, 42281.99, 42416.08, 40967.24, -90880.65, -187500.02, 42314.06, -102262.27, 0.000, 0.000, 0.000, 14:41:07.850
164, 42281.36, 42254.81, 42387.91, 42316.97, -90895.87, -187500.02, 42283.66, -102210.48, 0.000, 0.000, 0.000, 14:41:07.850
165, 41894.63, 42231.81, 42364.55, 42128.30, -90640.95, -187500.02, 42260.87, -101872.85, 0.000, 0.000, 0.000, 14:41:07.859
166, 37417.85, 42220.14, 42356.11, 39710.58, -90539.23, -187500.02, 42257.16, -101809.71, 0.000, 0.000, 0.000, 14:41:07.861
167, 39233.93, 42228.86, 42363.75, 40835.50, -90739.92, -187500.02, 42262.30, -102151.31, 0.000, 0.000, 0.000, 14:41:07.862
168, 42210.80, 42208.72, 42341.58, 42266.39, -90826.06, -187500.02, 42237.31, -102207.64, 0.000, 0.000, 0.000, 14:41:07.862
169, 42088.82, 42184.58, 42317.02, 42208.41, -90605.07, -187500.02, 42213.13, -101882.69, 0.384, 0.896, 0.242, 14:41:07.862
170, 38545.14, 42170.10, 42305.73, 40459.14, -90483.48, -187500.02, 42205.57, -101777.70, 0.000, 0.000, 0.000, 14:41:07.862
171, 38086.05, 42176.46, 42312.07, 40316.71, -90614.44, -187500.02, 42211.85, -102044.07, 0.000, 0.000, 0.000, 14:41:07.862
172, 42029.91, 42164.64, 42297.23, 42180.96, -90757.11, -187500.02, 42193.14, -102199.75, 0.000, 0.000, 0.000, 14:41:07.862
173, 42105.07, 42135.72, 42267.89, 42182.68, -90568.95, -187500.02, 42163.84, -101893.20, 0.000, 0.000, 0.000, 14:41:07.862
174, 38922.19, 42121.79, 42256.66, 40587.66, -90431.35, -187500.02, 42155.99, -101751.35, 0.000, 0.000, 0.000, 14:41:07.862
175, 36695.71, 42125.01, 42260.80, 39456.62, -90516.42, -187500.02, 42161.89, -101956.80, 0.000, 0.000, 0.000, 14:41:07.862
176, 41688.19, 42119.65, 42252.42, 42010.15, -90715.65, -187500.02, 42148.50, -102211.87, 0.000, 0.000, 0.000, 14:41:07.863
177, 42116.83, 42089.65, 42221.95, 42149.62, -90562.18, -187500.02, 42117.64, -101936.38, 0.000, 0.000, 0.000, 14:41:07.863
178, 40928.46, 42075.61, 42209.55, 41737.23, -90406.74, -187500.02, 42106.48, -101756.18, 0.000, 0.000, 0.000, 14:41:07.863
179, 37970.94, 42074.74, 42211.63, 40524.14, -90436.92, -187500.02, 42111.60, -101886.78, 0.388, 0.900, 0.238, 14:41:07.863
180, 41418.54, 42076.33, 42209.46, 41901.52, -90658.92, -187500.02, 42105.86, -102202.61, 0.000, 0.000, 0.000, 14:41:07.863
181, 42069.25, 42041.37, 42173.47, 42101.86, -90544.81, -187500.02, 42069.34, -101974.73, 0.000, 0.000, 0.000, 14:41:07.863
182, 41213.11, 42025.10, 42158.20, 41787.16, -90367.48, -187500.02, 42054.98, -101750.84, 0.000, 0.000, 0.000, 14:41:07.864
183, 37425.52, 42020.18, 42156.91, 40147.17, -90351.05, -187500.02, 42057.44, -101811.59, 0.000, 0.000, 0.000, 14:41:07.865
184, 40793.03, 42028.39, 42161.87, 41610.01, -90584.82, -187500.02, 42058.79, -102167.01, 0.000, 0.000, 0.000, 14:41:07.865
185, 42025.75, 41997.34, 42129.59, 42058.32, -90535.76, -187500.02, 42025.50, -102024.91, 0.000, 0.000, 0.000, 14:41:07.865
186, 41581.98, 41977.00, 42109.70, 41904.47, -90339.58, -187500.02, 42006.04, -101759.87, 0.000, 0.000, 0.000, 14:41:07.865
187, 37780.71, 41969.55, 42106.19, 40306.90, -90282.20, -187500.02, 42006.23, -101756.47, 0.000, 0.000, 0.000, 14:41:07.865
188, 40058.35, 41977.09, 42111.49, 41294.96, -90504.47, -187500.02, 42009.05, -102115.93, 0.000, 0.000, 0.000, 14:41:07.865
189, 41975.37, 41950.20, 42082.72, 42011.60, -90530.59, -187500.02, 41978.45, -102081.13, 0.388, 0.898, 0.244, 14:41:07.865
190, 41724.76, 41932.34, 42064.77, 41925.52, -90318.77, -187500.02, 41960.77, -101778.95, 0.000, 0.000, 0.000, 14:41:07.865
191, 38006.41, 41921.88, 42058.00, 40330.35, -90225.18, -187500.02, 41957.78, -101717.55, 0.000, 0.000, 0.000, 14:41:07.865
192, 39144.77, 41928.03, 42062.83, 40847.32, -90417.50, -187500.02, 41961.20, -102050.15, 0.000, 0.000, 0.000, 14:41:07.865
193, 41904.89, 41907.89, 42040.52, 41964.59, -90519.82, -187500.02, 41936.21, -102132.09, 0.000, 0.000, 0.000, 14:41:07.866
194, 41826.89, 41882.03, 42014.26, 41928.34, -90296.51, -187500.02, 41910.05, -101800.77, 0.000, 0.000, 0.000, 14:41:07.866
195, 38833.34, 41866.63, 42002.26, 40780.93, -90169.26, -187500.02, 41901.05, -101685.48, 0.000, 0.000, 0.000, 14:41:07.866
196, 38356.93, 41876.39, 42012.00, 40562.11, -90312.45, -187500.02, 41911.13, -101961.08, 0.000, 0.000, 0.000, 14:41:07.866
197, 41765.84, 41866.34, 41998.95, 41895.59, -90484.42, -187500.02, 41894.79, -102156.23, 0.000, 0.000, 0.000, 14:41:07.866
198, 41831.87, 41836.83, 41968.82, 41893.27, -90280.64, -187500.02, 41864.59, -101833.05, 0.000, 0.000, 0.000, 14:41:07.866
199, 39195.93, 41821.66, 41956.52, 40816.81, -90127.80, -187500.02, 41854.89, -101671.42, 0.390, 0.894, 0.248, 14:41:07.866
200, 37152.18, 41824.09, 41960.08, 39879.78, -90212.71, -187500.02, 41860.41, -101872.23, 0.000, 0.000, 0.000, 14:41:07.866
201, 41475.74, 41821.30, 41954.07, 41760.28, -90442.09, -187500.02, 41850.15, -102166.71, 0.000, 0.000, 0.000, 14:41:07.866
202, 41816.27, 41789.36, 41921.39, 41849.55, -90276.62, -187500.02, 41817.16, -101880.56, 0.000, 0.000, 0.000, 14:41:07.869
203, 40505.54, 41775.39, 41909.12, 41442.34, -90100.48, -187500.02, 41806.16, -101675.29, 0.000, 0.000, 0.000, 14:41:07.869
204, 37619.95, 41774.52, 41911.29, 40371.65, -90130.10, -187500.02, 41811.02, -101799.74, 0.000, 0.000, 0.000, 14:41:07.869
205, 41167.84, 41776.86, 41910.01, 41641.14, -90385.18, -187500.02, 41806.30, -102155.70, 0.000, 0.000, 0.000, 14:41:07.870
206, 41772.01, 41743.80, 41875.97, 41804.67, -90274.71, -187500.02, 41771.74, -101935.59, 0.000, 0.000, 0.000, 14:41:07.870
207, 41208.61, 41726.64, 41859.32, 41689.09, -90075.83, -187500.02, 41755.61, -101685.48, 0.000, 0.000, 0.000, 14:41:07.870
208, 38292.80, 41720.29, 41857.24, 40909.03, -90048.54, -187500.02, 41755.98, -101730.09, 0.000, 0.000, 0.000, 14:41:07.870
209, 40764.02, 41728.94, 41862.34, 41537.14, -90281.11, -187500.02, 41758.94, -102088.98, 0.388, 0.896, 0.248, 14:41:07.870
210, 41726.66, 41698.34, 41830.35, 41759.20, -90247.52, -187500.02, 41726.08, -101968.30, 0.000, 0.000, 0.000, 14:41:07.870
211, 41578.67, 41675.14, 41807.13, 41730.53, -90050.70, -187500.02, 41702.99, -101697.44, 0.000, 0.000, 0.000, 14:41:07.870
212, 39461.24, 41664.79, 41801.20, 41468.54, -89981.55, -187500.02, 41698.50, -101677.66, 0.000, 0.000, 0.000, 14:41:07.870
213, 40343.04, 41672.90, 41807.28, 41543.11, -90163.65, -187500.02, 41704.04, -101999.37, 0.000, 0.000, 0.000, 14:41:07.870
214, 41673.04, 41649.50, 41781.33, 41710.03, -90200.51, -187500.02, 41677.02, -101983.02, 0.000, 0.000, 0.000, 14:41:07.870
215, 41600.71, 41627.62, 41759.34, 41685.51, -90025.34, -187500.02, 41655.25, -101711.54, 0.000, 0.000, 0.000, 14:41:07.870
216, 39534.13, 41618.14, 41753.79, 41293.57, -89934.38, -187500.02, 41651.13, -101647.88, 0.000, 0.000, 0.000, 14:41:07.870
217, 39614.62, 41624.00, 41759.11, 41196.48, -90147.51, -187500.02, 41656.48, -102000.28, 0.000, 0.000, 0.000, 14:41:07.870
218, 41601.09, 41603.48, 41736.32, 41660.59, -90298.72, -187500.02, 41632.04, -102140.90, 0.000, 0.000, 0.000, 14:41:07.871
219, 41603.55, 41575.00, 41706.99, 41635.66, -90107.39, -187500.02, 41602.77, -101839.26, 0.000, 0.000, 0.000, 14:41:07.871
220, 41592.59, 41565.84, 41697.38, 41624.33, -89982.60, -187500.02, 41593.18, -101723.59, 0.390, 0.898, 0.256, 14:41:07.871
221, 41596.10, 41570.18, 41701.63, 41628.25, -90035.44, -187500.02, 41597.45, -101909.47, 0.000, 0.000, 0.000, 14:41:07.871
222, 41584.55, 41556.54, 41688.01, 41616.40, -90126.52, -187500.02, 41583.68, -102035.62, 0.000, 0.000, 0.000, 14:41:07.871
223, 41551.49, 41523.77, 41655.02, 41583.03, -89990.55, -187500.02, 41550.89, -101776.52, 0.000, 0.000, 0.000, 14:41:07.871
224, 41476.05, 41508.86, 41640.25, 41566.20, -89872.36, -187500.02, 41536.18, -101643.98, 0.000, 0.000, 0.000, 14:41:07.871
225, 41086.62, 41512.30, 41645.79, 41570.69, -89900.41, -187500.02, 41541.70, -101785.05, 0.000, 0.000, 0.000, 14:41:07.871
226, 41431.91, 41506.65, 41638.55, 41566.00, -90025.76, -187500.02, 41534.26, -101985.44, 0.000, 0.000, 0.000, 14:41:07.871
227, 41499.23, 41471.83, 41603.10, 41530.84, -89921.55, -187500.02, 41498.92, -101758.44, 0.000, 0.000, 0.000, 14:41:07.871
228, 41057.20, 41456.54, 41588.82, 41441.77, -89800.74, -187500.02, 41484.93, -101600.79, 0.000, 0.000, 0.000, 14:41:07.871
229, 37826.73, 41451.73, 41588.73, 40582.05, -89791.70, -187500.02, 41487.36, -101681.68, 0.000, 0.000, 0.000, 14:41:07.872
230, 40146.26, 41459.22, 41592.68, 41199.83, -89930.01, -187500.02, 41489.35, -101928.63, 0.392, 0.902, 0.252, 14:41:07.872
231, 41455.64, 41429.05, 41560.34, 41487.94, -89867.24, -187500.02, 41456.16, -101756.73, 0.000, 0.000, 0.000, 14:41:07.873
232, 40645.02, 41407.34, 41540.00, 41278.82, -89738.81, -187500.02, 41436.42, -101568.60, 0.000, 0.000, 0.000, 14:41:07.873
233, 34692.43, 41398.54, 41535.15, 38506.09, -89699.42, -187500.02, 41436.73, -101595.29, 0.000, 0.000, 0.000, 14:41:07.873
234, 37409.31, 41415.84, 41550.28, 39829.53, -89835.57, -187500.02, 41449.25, -101862.57, 0.000, 0.000, 0.000, 14:41:07.873
235, 41362.08, 41394.00, 41525.25, 41447.46, -89821.58, -187500.02, 41421.11, -101765.52, 0.000, 0.000, 0.000, 14:41:07.873
236, 40587.64, 41369.19, 41501.73, 41210.16, -89694.66, -187500.02, 41398.18, -101555.84, 0.000, 0.000, 0.000, 14:41:07.873
237, 33135.27, 41357.12, 41493.13, 37079.20, -89631.68, -187500.02, 41395.68, -101535.95, 0.000, 0.000, 0.000, 14:41:07.873
238, 33177.12, 41371.36, 41506.50, 37270.32, -89736.48, -187500.02, 41408.19, -101781.95, 0.000, 0.000, 0.000, 14:41:07.873
239, 40850.43, 41356.16, 41487.86, 41279.13, -89763.33, -187500.02, 41384.01, -101763.04, 0.000, 0.000, 0.000, 14:41:07.873
240, 40347.73, 41326.96, 41459.40, 41060.73, -89640.66, -187500.02, 41356.07, -101536.39, 0.382, 0.900, 0.262, 14:41:07.873
241, 31491.04, 41312.32, 41447.64, 35457.89, -89561.65, -187500.02, 41351.22, -101478.23, 0.000, 0.000, 0.000, 14:41:08.318
242, 27173.66, 41328.46, 41463.51, 32728.27, -89634.27, -187500.02, 41367.98, -101689.73, 0.000, 0.000, 0.000, 14:41:08.319
243, 38923.01, 41324.55, 41457.75, 40458.67, -89700.38, -187500.02, 41354.91, -101753.83, 0.000, 0.000, 0.000, 14:41:08.319
244, 40192.59, 41294.45, 41426.86, 40945.13, -89592.31, -187500.02, 41323.70, -101525.80, 0.000, 0.000, 0.000, 14:41:08.319
245, 30655.84, 41277.28, 41412.33, 34683.18, -89503.89, -187500.02, 41316.19, -101437.16, 0.000, 0.000, 0.000, 14:41:08.319
246, 22060.14, 41290.04, 41424.26, 28127.72, -89539.66, -187500.02, 41330.50, -101599.23, 0.000, 0.000, 0.000, 14:41:08.319
247, 34933.07, 41293.53, 41427.71, 38241.29, -89631.74, -187500.02, 41327.03, -101733.94, 0.000, 0.000, 0.000, 14:41:08.319
248, 39967.45, 41265.25, 41397.75, 40812.81, -89543.39, -187500.02, 41294.73, -101518.87, 0.000, 0.000, 0.000, 14:41:08.319
249, 29914.68, 41248.02, 41382.82, 33971.88, -89451.88, -187500.02, 41286.93, -101405.88, 0.000, 0.000, 0.000, 14:41:08.319
250, 17875.88, 41258.21, 41391.83, 23846.90, -89453.78, -187500.02, 41298.24, -101514.45, 0.388, 0.904, 0.256, 14:41:08.319
251, 28576.79, 41262.64, 41396.84, 33699.55, -89552.91, -187500.02, 41298.87, -101696.23, 0.000, 0.000, 0.000, 14:41:08.319
252, 39186.59, 41235.19, 41368.41, 40542.02, -89489.63, -187500.02, 41265.66, -101510.69, 0.000, 0.000, 0.000, 14:41:08.319
253, 29363.62, 41215.07, 41349.99, 33677.77, -89398.19, -187500.02, 41253.92, -101375.64, 0.000, 0.000, 0.000, 14:41:08.320
254, 15372.72, 41223.84, 41357.36, 21122.78, -89374.95, -187500.02, 41263.51, -101435.72, 0.000, 0.000, 0.000, 14:41:08.320
255, 20445.81, 41236.44, 41370.93, 27123.06, -89472.47, -187500.02, 41274.71, -101648.00, 0.000, 0.000, 0.000, 14:41:08.320
0, 36745.13, 41213.33, 41348.02, 39411.40, -89438.27, -187500.02, 41246.32, -101508.90, 0.000, 0.000, 0.000, 14:41:08.320
1, 28408.08, 41193.01, 41327.70, 32965.94, -89350.98, -187500.02, 41231.99, -101354.05, 0.000, 0.000, 0.000, 14:41:08.320
2, 13575.31, 41199.00, 41332.71, 19140.33, -89309.30, -187500.02, 41238.59, -101371.15, 0.000, 0.000, 0.000, 14:41:08.321
3, 12164.15, 41215.92, 41350.30, 19353.95, -89394.41, -187500.02, 41254.95, -101590.35, 0.000, 0.000, 0.000, 14:41:08.325
4, 31681.54, 41196.07, 41333.71, 36567.65, -89394.08, -187500.02, 41234.00, -101514.18, 0.396, 0.902, 0.238, 14:41:08.325
5, 27355.47, 41175.67, 41311.01, 32118.58, -89309.84, -187500.02, 41215.36, -101339.38, 0.000, 0.000, 0.000, 14:41:08.329
6, 12304.12, 41180.14, 41313.82, 17804.97, -89256.57, -187500.02, 41219.54, -101321.51, 0.000, 0.000, 0.000, 14:41:08.330
7, 5453.67, 41198.53, 41332.51, 12406.98, -89321.16, -187500.02, 41237.36, -101526.78, 0.000, 0.000, 0.000, 14:41:08.330
8, 24207.38, 41182.20, 41319.84, 31615.04, -89348.50, -187500.02, 41222.32, -101518.05, 0.000, 0.000, 0.000, 14:41:08.330
9, 25737.09, 41158.37, 41294.54, 31353.44, -89266.41, -187500.02, 41198.89, -101325.46, 0.000, 0.000, 0.000, 14:41:08.331
10, 11393.53, 41159.39, 41293.30, 16963.95, -89204.18, -187500.02, 41198.80, -101276.91, 0.000, 0.000, 0.000, 14:41:08.331
11, 367.11, 41180.50, 41314.65, 6816.52, -89245.05, -187500.02, 41219.32, -101453.58, 0.000, 0.000, 0.000, 14:41:08.331
12, 14958.28, 41172.65, 41306.92, 23116.87, -89291.66, -187500.02, 41212.57, -101508.59, 0.000, 0.000, 0.000, 14:41:08.332
13, 22434.94, 41145.80, 41280.18, 28688.08, -89216.23, -187500.02, 41186.48, -101309.08, 0.000, 0.000, 0.000, 14:41:08.332
14, 9996.33, 41146.36, 41280.07, 15641.04, -89152.57, -187500.02, 41185.70, -101237.91, 0.394, 0.910, 0.246, 14:41:08.332
15, -3289.04, 41165.34, 41299.43, 2721.68, -89167.16, -187500.02, 41204.39, -101373.85, 0.000, 0.000, 0.000, 14:41:08.332
16, 6490.75, 41165.50, 41299.07, 14739.75, -89228.77, -187500.02, 41205.06, -101488.34, 0.000, 0.000, 0.000, 14:41:08.333
17, 19241.70, 41138.94, 41272.38, 26076.19, -89167.45, -187500.02, 41179.33, -101298.86, 0.000, 0.000, 0.000, 14:41:08.333
18, 8625.52, 41138.68, 41272.20, 14392.09, -89103.70, -187500.02, 41178.04, -101206.17, 0.000, 0.000, 0.000, 14:41:08.333
19, -5850.50, 41152.38, 41286.33, -175.44, -89092.42, -187500.02, 41191.54, -101295.13, 0.000, 0.000, 0.000, 14:41:08.333
20, -2154.82, 41160.31, 41293.98, 5839.19, -89160.48, -187500.02, 41199.58, -101454.72, 0.000, 0.000, 0.000, 14:41:08.334
21, 14418.53, 41136.20, 41269.32, 21813.04, -89118.55, -187500.02, 41176.02, -101291.48, 0.000, 0.000, 0.000, 14:41:08.337
22, 6624.54, 41130.88, 41264.29, 12474.91, -89052.97, -187500.02, 41170.13, -101174.01, 0.000, 0.000, 0.000, 14:41:08.343
23, -8016.41, 41138.88, 41272.74, -2466.56, -89021.61, -187500.02, 41178.21, -101218.91, 0.000, 0.000, 0.000, 14:41:08.343
24, -9980.68, 41152.87, 41286.66, -2370.87, -89089.16, -187500.02, 41192.32, -101407.27, 0.388, 0.910, 0.264, 14:41:08.343
25, 9000.94, 41134.29, 41267.18, 16871.86, -89073.84, -187500.02, 41173.59, -101290.64, 0.000, 0.000, 0.000, 14:41:08.344
26, 5148.97, 41124.14, 41257.39, 11218.38, -89008.48, -187500.02, 41163.22, -101149.91, 0.000, 0.000, 0.000, 14:41:08.344
27, -9026.91, 41133.15, 41267.09, -3454.66, -88967.88, -187500.02, 41172.56, -101162.09, 0.000, 0.000, 0.000, 14:41:08.344
28, -16185.72, 41151.48, 41285.55, -9064.01, -89025.14, -187500.02, 41191.38, -101357.98, 0.000, 0.000, 0.000, 14:41:08.344
29, 2989.52, 41134.56, 41267.42, 11239.28, -89032.05, -187500.02, 41173.54, -101295.29, 0.000, 0.000, 0.000, 14:41:08.345
30, 4030.33, 41119.03, 41252.02, 10276.84, -88968.68, -187500.02, 41157.81, -101132.81, 0.000, 0.000, 0.000, 14:41:08.345
31, -9497.50, 41122.36, 41256.02, -3875.77, -88917.12, -187500.02, 41161.61, -101110.62, 0.000, 0.000, 0.000, 14:41:08.345
32, -20651.36, 41141.29, 41275.42, -14028.33, -88956.19, -187500.02, 41181.55, -101292.96, 0.000, 0.000, 0.000, 14:41:08.345
33, -3728.32, 41132.64, 41265.75, 4757.26, -88988.02, -187500.02, 41171.69, -101296.70, 0.000, 0.000, 0.000, 14:41:08.346
34, 2656.06, 41112.59, 41245.52, 9210.01, -88929.70, -187500.02, 41151.32, -101119.20, 0.402, 0.896, 0.254, 14:41:08.346
35, -9705.40, 41112.05, 41245.52, -3963.50, -88873.04, -187500.02, 41151.10, -101070.77, 0.000, 0.000, 0.000, 14:41:08.346
36, -23545.42, 41129.20, 41263.22, -17353.40, -88889.73, -187500.02, 41169.63, -101224.19, 0.000, 0.000, 0.000, 14:41:08.346
37, -10689.43, 41128.04, 41261.27, -2175.52, -88940.07, -187500.02, 41167.24, -101292.89, 0.000, 0.000, 0.000, 14:41:08.346
38, 1170.54, 41109.39, 41242.10, 8088.60, -88896.15, -187500.02, 41147.73, -101116.70, 0.000, 0.000, 0.000, 14:41:08.347
39, -9903.45, 41109.19, 41242.59, -4034.40, -88841.12, -187500.02, 41148.09, -101047.59, 0.000, 0.000, 0.000, 14:41:08.347
40, -25264.53, 41123.88, 41257.70, -19372.61, -88835.77, -187500.02, 41164.36, -101162.92, 0.000, 0.000, 0.000, 14:41:08.347
41, -17957.28, 41127.84, 41261.25, -9598.82, -88894.61, -187500.02, 41167.42, -101285.45, 0.000, 0.000, 0.000, 14:41:08.347
42, -1454.07, 41104.97, 41237.54, 5893.60, -88862.69, -187500.02, 41143.14, -101117.86, 0.000, 0.000, 0.000, 14:41:08.348
43, -10235.80, 41103.74, 41236.87, -4251.48, -88810.98, -187500.02, 41142.50, -101029.48, 0.000, 0.000, 0.000, 14:41:08.348
44, -25837.95, 41116.48, 41250.01, -20280.43, -88788.63, -187500.02, 41156.91, -101105.48, 0.400, 0.878, 0.250, 14:41:08.348
45, -24614.99, 41129.45, 41262.84, -16723.89, -88853.01, -187500.02, 41169.59, -101272.95, 0.000, 0.000, 0.000, 14:41:08.348
46, -4913.92, 41107.74, 41240.31, 2862.70, -88840.11, -187500.02, 41145.89, -101134.64, 0.000, 0.000, 0.000, 14:41:08.348
47, -10678.57, 41100.14, 41233.16, -4594.42, -88786.34, -187500.02, 41138.83, -101019.98, 0.000, 0.000, 0.000, 14:41:08.348
48, -26026.44, 41108.34, 41241.27, -20597.82, -88746.77, -187500.02, 41148.15, -101054.11, 0.000, 0.000, 0.000, 14:41:08.349
49, -30681.14, 41123.95, 41256.54, -23434.24, -88801.38, -187500.02, 41163.75, -101240.68, 0.000, 0.000, 0.000, 14:41:08.349
50, -10043.11, 41105.84, 41238.54, -1915.97, -88810.32, -187500.02, 41144.11, -101148.10, 0.000, 0.000, 0.000, 14:41:08.349
51, -11717.28, 41093.46, 41226.32, -5450.56, -88758.15, -187500.02, 41131.99, -101010.34, 0.000, 0.000, 0.000, 14:41:08.350
52, -26234.73, 41100.07, 41232.44, -20762.85, -88709.78, -187500.02, 41139.34, -101011.30, 0.000, 0.000, 0.000, 14:41:08.350
53, -35591.40, 41118.96, 41249.34, -29106.91, -88749.23, -187500.02, 41157.03, -101198.32, 0.000, 0.000, 0.000, 14:41:08.350
54, -15885.92, 41101.48, 41233.80, -7455.60, -88775.90, -187500.02, 41139.84, -101160.05, 0.406, 0.884, 0.258, 14:41:08.350
55, -12569.55, 41085.19, 41217.82, -6077.93, -88727.64, -187500.02, 41123.59, -101002.34, 0.000, 0.000, 0.000, 14:41:08.351
56, -26011.13, 41088.43, 41220.64, -20505.62, -88672.63, -187500.02, 41127.25, -100973.13, 0.000, 0.000, 0.000, 14:41:08.351
57, -38625.29, 41109.50, 41236.48, -33208.72, -88690.47, -187500.02, 41143.48, -101140.39, 0.000, 0.000, 0.000, 14:41:08.351
58, -22543.88, 41095.89, 41226.92, -14201.22, -88734.79, -187500.02, 41133.31, -101165.09, 0.000, 0.000, 0.000, 14:41:08.352
59, -14024.65, 41076.36, 41208.88, -7290.38, -88696.14, -187500.02, 41114.67, -100997.05, 0.000, 0.000, 0.000, 14:41:08.352
60, -26136.74, 41077.27, 41209.84, -20550.77, -88640.58, -187500.02, 41116.41, -100944.54, 0.000, 0.000, 0.000, 14:41:08.352
61, -39907.32, 41100.01, 41227.03, -36199.27, -88639.13, -187500.02, 41132.21, -101082.23, 0.000, 0.000, 0.000, 14:41:08.352
62, -29847.31, 41091.98, 41220.50, -22245.51, -88694.00, -187500.02, 41126.85, -101166.02, 0.000, 0.000, 0.000, 14:41:08.352
63, -17235.47, 41068.40, 41200.61, -10115.06, -88668.88, -187500.02, 41106.80, -100999.73, 0.000, 0.000, 0.000, 14:41:08.352
64, -28247.42, 41066.30, 41198.58, -22453.80, -88614.00, -187500.02, 41105.59, -100924.36, 0.398, 0.888, 0.252, 14:41:08.352
65, -41018.24, 41088.27, 41216.04, -38167.32, -88594.13, -187500.02, 41119.70, -101024.49, 0.000, 0.000, 0.000, 14:41:08.353
66, -36713.23, 41090.64, 41217.20, -31036.56, -88654.70, -187500.02, 41121.82, -101160.51, 0.000, 0.000, 0.000, 14:41:08.353
67, -21954.13, 41058.05, 41189.66, -14485.20, -88641.12, -187500.02, 41096.30, -101005.41, 0.000, 0.000, 0.000, 14:41:08.353
68, -30097.72, 41051.64, 41183.71, -24130.14, -88587.72, -187500.02, 41091.20, -100908.38, 0.000, 0.000, 0.000, 14:41:08.353
69, -41411.41, 41071.93, 41199.74, -38453.89, -88554.19, -187500.02, 41103.79, -100971.52, 0.000, 0.000, 0.000, 14:41:08.353
70, -40740.28, 41083.13, 41208.77, -36842.89, -88610.20, -187500.02, 41111.63, -101142.06, 0.000, 0.000, 0.000, 14:41:08.353
71, -25411.07, 41049.94, 41180.54, -17808.82, -88614.02, -187500.02, 41087.15, -101019.22, 0.000, 0.000, 0.000, 14:41:08.353
72, -30153.15, 41039.68, 41171.38, -24003.85, -88563.04, -187500.02, 41079.11, -100899.55, 0.000, 0.000, 0.000, 14:41:08.353
73, -40885.74, 41052.87, 41180.38, -37426.16, -88514.47, -187500.02, 41085.61, -100922.08, 0.000, 0.000, 0.000, 14:41:08.353
74, -42848.72, 41069.63, 41194.13, -40064.52, -88558.28, -187500.02, 41096.63, -101107.76, 0.000, 0.000, 0.000, 14:41:08.353
75, -28421.00, 41037.31, 41166.52, -20985.09, -88578.64, -187500.02, 41073.25, -101029.63, 0.396, 0.896, 0.250, 14:41:08.354
76, -29821.74, 41022.82, 41153.98, -23492.67, -88532.71, -187500.02, 41062.03, -100889.42, 0.000, 0.000, 0.000, 14:41:08.354
77, -40466.80, 41033.82, 41160.71, -36529.32, -88479.55, -187500.02, 41067.30, -100882.12, 0.000, 0.000, 0.000, 14:41:08.354
78, -44276.28, 41054.59, 41084.88, -42382.53, -88507.12, -187500.02, 41080.45, -101064.08, 0.000, 0.000, 0.000, 14:41:08.354
79, -32532.83, 41027.90, 41018.82, -25654.53, -88543.64, -187500.02, 41062.05, -101042.98, 0.000, 0.000, 0.000, 14:41:08.354
80, -30511.94, 41009.21, 41135.97, -23973.05, -88504.12, -187500.02, 41048.38, -100885.16, 0.000, 0.000, 0.000, 14:41:08.354
81, -40811.85, 41017.21, 41097.46, -36519.53, -88447.03, -187500.02, 41050.70, -100849.37, 0.000, 0.000, 0.000, 14:41:08.354
82, -45103.88, 41039.93, 39859.13, -43702.42, -88455.88, -187500.02, 41064.85, -101011.33, 0.000, 0.000, 0.000, 14:41:08.354
83, -36683.44, 41020.28, 39178.49, -30748.98, -88502.00, -187500.02, 41051.77, -101048.05, 0.000, 0.000, 0.000, 14:41:08.354
84, -31637.31, 40995.47, 40837.60, -24807.96, -88468.42, -187500.02, 41033.87, -100877.46, 0.000, 0.000, 0.000, 14:41:08.354
85, -41029.24, 41001.10, 40918.64, -36418.77, -88412.32, -187500.02, 41033.87, -100819.53, 0.396, 0.898, 0.254, 14:41:08.354
86, -45375.18, 41025.13, 38441.33, -44103.61, -88406.66, -187500.02, 41049.22, -100953.59, 0.000, 0.000, 0.000, 14:41:08.354
87, -39218.19, 41019.00, 36657.82, -34255.99, -88467.89, -187500.02, 41047.73, -101056.05, 0.000, 0.000, 0.000, 14:41:08.355
88, -31509.01, 40991.89, 38726.41, -24453.86, -88444.40, -187500.02, 41029.33, -100887.30, 0.000, 0.000, 0.000, 14:41:08.355
89, -40497.54, 40996.81, 39181.94, -35663.46, -88385.05, -187500.02, 41029.49, -100802.79, 0.000, 0.000, 0.000, 14:41:08.355
90, -45360.00, 41018.13, 36980.76, -44032.80, -88359.13, -187500.02, 41041.80, -100895.86, 0.000, 0.000, 0.000, 14:41:08.355
91, -41433.92, 41021.29, 34702.11, -37507.95, -88425.20, -187500.02, 41047.59, -101050.20, 0.000, 0.000, 0.000, 14:41:08.355
92, -32007.03, 40994.44, 36641.41, -24791.26, -88416.62, -187500.02, 41030.89, -100900.30, 0.000, 0.000, 0.000, 14:41:08.355
93, -39594.08, 40995.91, 37574.38, -34401.05, -88356.27, -187500.02, 41029.35, -100791.43, 0.000, 0.000, 0.000, 14:41:08.355
94, -45143.82, 41017.04, 35924.97, -43540.32, -88317.23, -187500.02, 41040.89, -100846.24, 0.000, 0.000, 0.000, 14:41:08.355
95, -42818.61, 41026.38, 32987.89, -39777.88, -88379.66, -187500.02, 41050.25, -101033.68, 0.382, 0.890, 0.250, 14:41:08.355
96, -31978.53, 40999.67, 34618.18, -24739.76, -88386.57, -187500.02, 41034.65, -100917.77, 0.000, 0.000, 0.000, 14:41:08.355
97, -38069.22, 40997.75, 36189.91, -32609.92, -88325.48, -187500.02, 41032.13, -100782.23, 0.000, 0.000, 0.000, 14:41:08.355
98, -44791.46, 41016.43, 35051.76, -42853.30, -88276.36, -187500.02, 41040.84, -100799.79, 0.000, 0.000, 0.000, 14:41:08.356
99, -43406.84, 41035.97, 31980.83, -40758.56, -88345.31, -187500.02, 41055.66, -101015.95, 0.000, 0.000, 0.000, 14:41:08.356
100, -30953.68, 41014.38, 33234.54, -23580.44, -88379.51, -187500.02, 41046.00, -100958.78, 0.000, 0.000, 0.000, 14:41:08.356
101, -35615.94, 41008.10, 35434.87, -29829.05, -88313.57, -187500.02, 41043.79, -100793.53, 0.000, 0.000, 0.000, 14:41:08.356
102, -44255.76, 41024.46, 34768.38, -41933.88, -88253.00, -187500.02, 41050.32, -100774.31, 0.000, 0.000, 0.000, 14:41:08.356
103, -43469.27, 41045.42, 31793.01, -40742.67, -88318.71, -187500.02, 41069.05, -100995.37, 0.000, 0.000, 0.000, 14:41:08.356
104, -28177.81, 41027.96, 32735.96, -20388.50, -88389.12, -187500.02, 41061.63, -101017.41, 0.000, 0.000, 0.000, 14:41:08.356
105, -30757.23, 41016.70, 35705.21, -24585.29, -88317.84, -187500.02, 41053.89, -100824.65, 0.384, 0.900, 0.248, 14:41:08.803
106, -43003.32, 41030.16, 35547.32, -39884.41, -88239.97, -187500.02, 41058.68, -100764.66, 0.000, 0.000, 0.000, 14:41:08.803
107, -44136.51, 41049.27, 32699.91, -41809.52, -88277.97, -187500.02, 41073.63, -100953.21, 0.000, 0.000, 0.000, 14:41:08.804
108, -29069.94, 41038.72, 32791.73, -21324.59, -88376.13, -187500.02, 41072.11, -101052.14, 0.000, 0.000, 0.000, 14:41:08.804
109, -27462.80, 41022.91, 36121.78, -20953.13, -88312.77, -187500.02, 41060.87, -100850.77, 0.000, 0.000, 0.000, 14:41:08.804
110, -41674.34, 41035.05, 36396.42, -37967.77, -88226.16, -187500.02, 41065.81, -100759.52, 0.000, 0.000, 0.000, 14:41:08.804
111, -44825.68, 41055.77, 33812.78, -43045.55, -88235.56, -187500.02, 41080.25, -100904.66, 0.000, 0.000, 0.000, 14:41:08.804
112, -32111.72, 41050.95, 32866.00, -24875.50, -88347.93, -187500.02, 41083.36, -101067.23, 0.000, 0.000, 0.000, 14:41:08.804
113, -25349.02, 41031.81, 36232.91, -18396.31, -88304.34, -187500.02, 41070.05, -100879.37, 0.000, 0.000, 0.000, 14:41:08.804
114, -40191.77, 41039.99, 36964.40, -35995.56, -88210.35, -187500.02, 41072.51, -100757.46, 0.000, 0.000, 0.000, 14:41:08.804
115, -45189.59, 41060.13, 34721.27, -43775.04, -88189.72, -187500.02, 41084.81, -100850.40, 0.396, 0.918, 0.248, 14:41:08.804
116, -35832.62, 41063.86, 32809.10, -29538.37, -88307.07, -187500.02, 41094.33, -101062.29, 0.000, 0.000, 0.000, 14:41:08.804
117, -24580.30, 41040.57, 35878.86, -17135.12, -88289.77, -187500.02, 41078.57, -100907.04, 0.000, 0.000, 0.000, 14:41:08.804
118, -38516.88, 41040.59, 37119.63, -33839.49, -88188.73, -187500.02, 41074.66, -100753.75, 0.000, 0.000, 0.000, 14:41:08.804
119, -45196.43, 41058.10, 35279.10, -43865.01, -88141.77, -187500.02, 41083.29, -100794.96, 0.000, 0.000, 0.000, 14:41:08.804
120, -39113.68, 41069.83, 32663.10, -33999.21, -88251.84, -187500.02, 41098.60, -101034.17, 0.000, 0.000, 0.000, 14:41:08.804
121, -24741.39, 41047.99, 35190.38, -16901.61, -88268.06, -187500.02, 41085.68, -100933.08, 0.000, 0.000, 0.000, 14:41:08.804
122, -36434.32, 41047.41, 37018.38, -31233.72, -88171.48, -187500.02, 41083.02, -100758.17, 0.000, 0.000, 0.000, 14:41:08.804
123, -44941.04, 41063.57, 35620.75, -43400.70, -88105.81, -187500.02, 41089.52, -100754.30, 0.000, 0.000, 0.000, 14:41:08.804
124, -41668.12, 41077.01, 32569.53, -37715.71, -88194.99, -187500.02, 41104.25, -100993.16, 0.000, 0.000, 0.000, 14:41:08.804
125, -26068.93, 41056.11, 34281.88, -18030.50, -88243.74, -187500.02, 41093.08, -100958.84, 0.394, 0.914, 0.246, 14:41:08.804
126, -34346.72, 41051.32, 36642.53, -28720.58, -88151.97, -187500.02, 41088.00, -100763.54, 0.000, 0.000, 0.000, 14:41:08.805
127, -44549.46, 41066.08, 35683.35, -42691.96, -88073.05, -187500.02, 41092.96, -100721.59, 0.000, 0.000, 0.000, 14:41:08.805
128, -43521.19, 41082.21, 32449.26, -40697.96, -88136.77, -187500.02, 41108.12, -100940.99, 0.000, 0.000, 0.000, 14:41:08.806
129, -28230.45, 41068.40, 33169.43, -20275.87, -88219.23, -187500.02, 41103.96, -100985.83, 0.000, 0.000, 0.000, 14:41:08.806
130, -32080.81, 41058.05, 36009.84, -26082.65, -88135.83, -187500.02, 41095.51, -100776.77, 0.000, 0.000, 0.000, 14:41:08.806
131, -44016.30, 41073.27, 35514.98, -41811.20, -88048.19, -187500.02, 41101.19, -100702.34, 0.000, 0.000, 0.000, 14:41:08.806
132, -44740.50, 41091.33, 32322.21, -42836.04, -88082.34, -187500.02, 41116.21, -100885.00, 0.000, 0.000, 0.000, 14:41:08.807
133, -31226.77, 41080.27, 31971.69, -23677.47, -88186.41, -187500.02, 41113.95, -101001.88, 0.000, 0.000, 0.000, 14:41:08.807
134, -30186.57, 41064.78, 35094.07, -23751.25, -88118.33, -187500.02, 41102.78, -100793.20, 0.000, 0.000, 0.000, 14:41:08.807
135, -43292.27, 41077.16, 35112.42, -40679.19, -88022.10, -187500.02, 41106.09, -100687.43, 0.384, 0.892, 0.252, 14:41:08.807
136, -45420.11, 41096.54, 32159.98, -44152.56, -88026.69, -187500.02, 41120.68, -100823.42, 0.000, 0.000, 0.000, 14:41:08.808
137, -34451.70, 41095.11, 30798.06, -27681.38, -88148.73, -187500.02, 41126.40, -101007.04, 0.000, 0.000, 0.000, 14:41:08.808
138, -28523.78, 41074.30, 33926.84, -21653.95, -88102.52, -187500.02, 41112.37, -100816.49, 0.000, 0.000, 0.000, 14:41:08.808
139, -42273.94, 41082.10, 34535.88, -39279.19, -87998.01, -187500.02, 41112.23, -100678.52, 0.000, 0.000, 0.000, 14:41:08.808
140, -45751.98, 41101.14, 31900.63, -44885.90, -87973.80, -187500.02, 41111.07, -100761.46, 0.000, 0.000, 0.000, 14:41:08.808
141, -37958.89, 41107.29, 29651.33, -32295.79, -88099.15, -187500.02, 41055.39, -100988.44, 0.000, 0.000, 0.000, 14:41:08.809
142, -28243.93, 41085.95, 32363.78, -20918.68, -88084.87, -187500.02, 41107.29, -100840.90, 0.000, 0.000, 0.000, 14:41:08.809
143, -41171.22, 41093.43, 33557.54, -37732.58, -87979.77, -187500.02, 41124.70, -100678.31, 0.000, 0.000, 0.000, 14:41:08.809
144, -45826.39, 41109.95, 31285.09, -45117.80, -87929.10, -187500.02, 41042.14, -100708.33, 0.000, 0.000, 0.000, 14:41:08.809
145, -40916.48, 41122.61, 28443.67, -36512.38, -88044.01, -187500.02, 40523.62, -100954.00, 0.376, 0.900, 0.236, 14:41:08.809
146, -28528.25, 41102.87, 30569.07, -20883.84, -88066.59, -187500.02, 40945.38, -100868.81, 0.000, 0.000, 0.000, 14:41:08.809
147, -39569.05, 41104.61, 31944.46, -35634.98, -87958.73, -187500.02, 41137.00, -100678.42, 0.000, 0.000, 0.000, 14:41:08.809
148, -45751.43, 41124.48, 30144.81, -45025.17, -87891.05, -187500.02, 40996.74, -100665.26, 0.000, 0.000, 0.000, 14:41:08.809
149, -43279.21, 41144.46, 27052.56, -40130.12, -87987.10, -187500.02, 39859.17, -100907.33, 0.000, 0.000, 0.000, 14:41:08.809
150, -30334.94, 41126.74, 28493.91, -22619.41, -88044.21, -187500.02, 40485.96, -100892.89, 0.000, 0.000, 0.000, 14:41:08.809
151, -38158.38, 41124.70, 30455.86, -33691.34, -87943.12, -187500.02, 41148.44, -100685.98, 0.000, 0.000, 0.000, 14:41:08.810
152, -45626.77, 41138.12, 29148.08, -44768.13, -87856.21, -187500.02, 40962.66, -100629.41, 0.000, 0.000, 0.000, 14:41:08.810
153, -44878.59, 41160.42, 25942.64, -42841.41, -87922.91, -187500.02, 39154.98, -100843.94, 0.000, 0.000, 0.000, 14:41:08.810
154, -32789.83, 41150.21, 26526.27, -25360.74, -88013.86, -187500.02, 39550.27, -100909.07, 0.000, 0.000, 0.000, 14:41:08.810
155, -36392.48, 41141.85, 29020.01, -31204.98, -87924.56, -187500.02, 41081.88, -100695.32, 0.376, 0.908, 0.244, 14:41:08.810
156, -45362.39, 41159.80, 28233.70, -44273.08, -87832.54, -187500.02, 40928.55, -100610.05, 0.000, 0.000, 0.000, 14:41:08.810
157, -45820.88, 41182.55, 25121.37, -44544.12, -87866.02, -187500.02, 38550.68, -100780.86, 0.000, 0.000, 0.000, 14:41:08.810
158, -35814.73, 41180.76, 24741.12, -29135.16, -87981.36, -187500.02, 38238.71, -100918.66, 0.000, 0.000, 0.000, 14:41:08.810
159, -35170.51, 41168.49, 27519.11, -29344.82, -87912.49, -187500.02, 40781.07, -100713.63, 0.000, 0.000, 0.000, 14:41:08.811
160, -45002.93, 41181.72, 27265.08, -43638.00, -87809.92, -187500.02, 40821.50, -100596.39, 0.000, 0.000, 0.000, 14:41:08.811
161, -46304.23, 41201.53, 24419.17, -45511.10, -87808.09, -187500.02, 38010.88, -100713.13, 0.000, 0.000, 0.000, 14:41:08.811
162, -38726.45, 41206.63, 23124.49, -33131.52, -87934.82, -187500.02, 36765.94, -100909.31, 0.000, 0.000, 0.000, 14:41:08.811
163, -33976.64, 41193.70, 26003.30, -27530.51, -87897.27, -187500.02, 39939.14, -100733.20, 0.000, 0.000, 0.000, 14:41:08.811
164, -44349.19, 41206.76, 26347.19, -42592.68, -87791.05, -187500.02, 40443.38, -100588.75, 0.000, 0.000, 0.000, 14:41:08.811
165, -46493.57, 41226.59, 23850.45, -45942.64, -87760.43, -187500.02, 37465.14, -100654.59, 0.388, 0.906, 0.238, 14:41:08.812
166, -41380.86, 41239.10, 21752.07, -36996.65, -87886.52, -187500.02, 35385.96, -100889.63, 0.000, 0.000, 0.000, 14:41:08.812
167, -33661.95, 41220.15, 24426.28, -26735.23, -87877.55, -187500.02, 38366.23, -100753.55, 0.000, 0.000, 0.000, 14:41:08.812
168, -43486.93, 41231.30, 25440.17, -41209.66, -87768.55, -187500.02, 39547.86, -100582.00, 0.000, 0.000, 0.000, 14:41:08.812
169, -46497.50, 41252.82, 23428.45, -46021.21, -87715.66, -187500.02, 37056.46, -100600.59, 0.000, 0.000, 0.000, 14:41:08.813
170, -43292.69, 41274.24, 20800.15, -40004.12, -87831.53, -187500.02, 34459.37, -100852.32, 0.000, 0.000, 0.000, 14:41:08.813
171, -33193.41, 41255.57, 23053.88, -25893.36, -87859.74, -187500.02, 36947.19, -100781.35, 0.000, 0.000, 0.000, 14:41:08.813
172, -41891.44, 41263.93, 24790.74, -38781.66, -87753.68, -187500.02, 38957.17, -100587.56, 0.000, 0.000, 0.000, 14:41:08.813
173, -46401.53, 41284.14, 23258.96, -45882.18, -87680.68, -187500.02, 36994.59, -100561.14, 0.000, 0.000, 0.000, 14:41:08.813
174, -44908.97, 41305.91, 20268.18, -42644.60, -87769.06, -187500.02, 33961.15, -100798.88, 0.000, 0.000, 0.000, 14:41:08.813
175, -34577.23, 41292.23, 21731.84, -27334.30, -87834.77, -187500.02, 35503.62, -100803.34, 0.384, 0.904, 0.248, 14:41:08.813
176, -40558.45, 41295.76, 24011.83, -36771.61, -87735.66, -187500.02, 38032.12, -100592.19, 0.000, 0.000, 0.000, 14:41:08.813
177, -46312.41, 41317.31, 22904.55, -45710.97, -87651.00, -187500.02, 36602.81, -100530.81, 0.000, 0.000, 0.000, 14:41:08.813
178, -46056.80, 41343.19, 19741.64, -44630.38, -87710.86, -187500.02, 33401.02, -100739.89, 0.000, 0.000, 0.000, 14:41:08.813
179, -36746.56, 41330.77, 20235.46, -30075.12, -87809.07, -187500.02, 33805.58, -100823.55, 0.000, 0.000, 0.000, 14:41:08.813
180, -39176.48, 41329.34, 22968.50, -34612.05, -87723.38, -187500.02, 36570.09, -100606.14, 0.000, 0.000, 0.000, 14:41:08.813
181, -46141.91, 41354.93, 22338.11, -45396.32, -87628.06, -187500.02, 35728.99, -100511.68, 0.000, 0.000, 0.000, 14:41:08.813
182, -46720.20, 41382.22, 19253.75, -45815.06, -87657.23, -187500.02, 32530.30, -100678.55, 0.000, 0.000, 0.000, 14:41:08.813
183, -39173.02, 41220.17, 18739.01, -33441.09, -87778.25, -187500.02, 31991.49, -100834.52, 0.000, 0.000, 0.000, 14:41:08.814
184, -38053.40, 41138.29, 21744.89, -32706.28, -87715.41, -187500.02, 34903.19, -100628.91, 0.000, 0.000, 0.000, 14:41:08.814
185, -45839.43, 41384.95, 21687.90, -44873.00, -87613.31, -187500.02, 34764.09, -100505.22, 0.382, 0.896, 0.258, 14:41:08.814
186, -47042.91, 41423.37, 18884.34, -46423.63, -87608.09, -187500.02, 31781.61, -100617.70, 0.000, 0.000, 0.000, 14:41:08.814
187, -41438.43, 41094.17, 17431.97, -36755.36, -87738.30, -187500.02, 30306.08, -100829.52, 0.000, 0.000, 0.000, 14:41:08.814
188, -36995.36, 40680.87, 20479.54, -30817.69, -87702.97, -187500.02, 33258.63, -100653.43, 0.000, 0.000, 0.000, 14:41:08.814
189, -45281.59, 41277.48, 21073.47, -43911.79, -87597.47, -187500.02, 33830.39, -100502.23, 0.000, 0.000, 0.000, 14:41:08.814
190, -47137.97, 41461.43, 18680.11, -46645.25, -87562.64, -187500.02, 31164.57, -100561.30, 0.000, 0.000, 0.000, 14:41:08.814
191, -43410.57, 41019.70, 16457.77, -39838.50, -87688.95, -187500.02, 28826.20, -100806.16, 0.000, 0.000, 0.000, 14:41:08.814
192, -36531.64, 40121.13, 19236.65, -29865.08, -87689.78, -187500.02, 31688.92, -100682.18, 0.000, 0.000, 0.000, 14:41:08.814
193, -44502.37, 40857.07, 20514.38, -42656.20, -87579.16, -187500.02, 32957.49, -100500.97, 0.000, 0.000, 0.000, 14:41:08.814
194, -47133.26, 41436.24, 18578.46, -46670.75, -87521.09, -187500.02, 30505.68, -100511.03, 0.000, 0.000, 0.000, 14:41:08.814
195, -44327.66, 41005.46, 15932.99, -41426.07, -87629.92, -187500.02, 27745.20, -100763.11, 0.000, 0.000, 0.000, 14:41:08.814
196, -33537.61, 39660.02, 18531.03, -26058.33, -87666.71, -187500.02, 30692.03, -100706.95, 0.380, 0.892, 0.256, 14:41:08.814
197, -41801.29, 40252.03, 20847.96, -38507.61, -87562.42, -187500.02, 33248.31, -100506.52, 0.000, 0.000, 0.000, 14:41:08.815
198, -46839.84, 41228.28, 19547.34, -46306.11, -87487.54, -187500.02, 31589.41, -100474.35, 0.000, 0.000, 0.000, 14:41:08.815
199, -45693.65, 41000.65, 16525.98, -43713.04, -87572.73, -187500.02, 28325.38, -100712.40, 0.000, 0.000, 0.000, 14:41:08.815
200, -34674.77, 39257.95, 18124.38, -27358.09, -87645.88, -187500.02, 30198.68, -100734.48, 0.000, 0.000, 0.000, 14:41:08.815
201, -39924.10, 39523.23, 20988.98, -35669.27, -87545.37, -187500.02, 33328.39, -100514.61, 0.000, 0.000, 0.000, 14:41:08.815
202, -46585.21, 40725.50, 20209.35, -45902.43, -87454.20, -187500.02, 32282.27, -100442.99, 0.000, 0.000, 0.000, 14:41:08.815
203, -46388.07, 40918.00, 17165.04, -44929.02, -87507.32, -187500.02, 28946.71, -100645.72, 0.000, 0.000, 0.000, 14:41:08.815
204, -34236.03, 38979.27, 17949.63, -27088.19, -87609.42, -187500.02, 30058.02, -100746.26, 0.000, 0.000, 0.000, 14:41:08.815
205, -35014.27, 38858.80, 21631.53, -29011.96, -87528.02, -187500.02, 34150.71, -100529.85, 0.000, 0.000, 0.000, 14:41:08.815
206, -45590.83, 40071.60, 21721.49, -44192.68, -87433.41, -187500.02, 34318.84, -100431.91, 0.388, 0.902, 0.258, 14:41:08.815
207, -46513.04, 40621.41, 19073.32, -45313.22, -87452.59, -187500.02, 31735.74, -100586.00, 0.000, 0.000, 0.000, 14:41:08.815
208, -33842.60, 38817.11, 19049.50, -26839.82, -87573.26, -187500.02, 32037.45, -100754.93, 0.000, 0.000, 0.000, 14:41:08.816
209, -28827.13, 38285.39, 23208.06, -21711.95, -87510.90, -187500.02, 36705.95, -100552.36, 0.000, 0.000, 0.000, 14:41:08.816
210, -43829.36, 39388.98, 23901.93, -41295.14, -87408.84, -187500.02, 37480.36, -100424.80, 0.000, 0.000, 0.000, 14:41:08.817
211, -46841.34, 40187.68, 21315.76, -46003.55, -87399.41, -187500.02, 34590.93, -100526.16, 0.000, 0.000, 0.000, 14:41:08.818
212, -36931.36, 38615.81, 20006.11, -30893.55, -87527.13, -187500.02, 33578.49, -100745.97, 0.000, 0.000, 0.000, 14:41:08.818
213, -26111.33, 37619.95, 23981.74, -18381.61, -87496.33, -187500.02, 38088.09, -100582.58, 0.000, 0.000, 0.000, 14:41:08.818
214, -41915.60, 38570.01, 25241.13, -38605.02, -87389.22, -187500.02, 39551.72, -100426.30, 0.000, 0.000, 0.000, 14:41:08.818
215, -46915.91, 39534.73, 22903.45, -46234.13, -87350.03, -187500.02, 36642.24, -100471.29, 0.000, 0.000, 0.000, 14:41:08.818
216, -40202.32, 38342.09, 20555.40, -35355.36, -87472.74, -187500.02, 34438.81, -100718.32, 0.386, 0.910, 0.258, 14:41:08.818
217, -24988.09, 36953.13, 24043.10, -16723.08, -87478.94, -187500.02, 38484.81, -100612.24, 0.000, 0.000, 0.000, 14:41:08.818
218, -39336.75, 37709.25, 26029.32, -35059.02, -87370.87, -187500.02, 40868.13, -100431.28, 0.000, 0.000, 0.000, 14:41:08.818
219, -46706.14, 38764.65, 24158.61, -45921.50, -87307.90, -187500.02, 38359.66, -100426.92, 0.000, 0.000, 0.000, 14:41:08.818
220, -42543.95, 38010.10, 21161.20, -38784.52, -87412.44, -187500.02, 35264.52, -100675.05, 0.000, 0.000, 0.000, 14:41:08.818
221, -23641.48, 36310.43, 24005.97, -15072.61, -87455.47, -187500.02, 38638.54, -100641.32, 0.000, 0.000, 0.000, 14:41:08.818
222, -34421.93, 36831.58, 26974.22, -28716.78, -87351.44, -187500.02, 41637.97, -100443.80, 0.000, 0.000, 0.000, 14:41:08.818
223, -45830.17, 37952.88, 25930.21, -44343.60, -87270.91, -187500.02, 40831.25, -100397.73, 0.000, 0.000, 0.000, 14:41:08.818
224, -43302.30, 37671.83, 22956.09, -39977.17, -87346.30, -187500.02, 37825.92, -100620.62, 0.000, 0.000, 0.000, 14:41:08.818
225, -20585.11, 35831.54, 25187.53, -11644.16, -87423.66, -187500.02, 39777.68, -100664.97, 0.000, 0.000, 0.000, 14:41:09.281
226, -26346.29, 36041.05, 29116.19, -19625.05, -87329.85, -187500.02, 41770.54, -100454.37, 0.386, 0.904, 0.254, 14:41:09.281
227, -44014.52, 37148.00, 28619.02, -41260.47, -87242.23, -187500.02, 41752.81, -100380.83, 0.000, 0.000, 0.000, 14:41:09.281
228, -45150.30, 37239.03, 25256.64, -42893.20, -87286.15, -187435.42, 40265.13, -100566.44, 0.000, 0.000, 0.000, 14:41:09.281
229, -24315.72, 35345.53, 25975.43, -15710.68, -87389.66, -187500.02, 40518.10, -100682.34, 0.000, 0.000, 0.000, 14:41:09.281
230, -21987.30, 35157.53, 30259.99, -14705.03, -87310.52, -187500.02, 41804.55, -100470.80, 0.000, 0.000, 0.000, 14:41:09.281
231, -42274.88, 36237.88, 30297.74, -38768.68, -87213.30, -187381.42, 41859.52, -100364.73, 0.000, 0.000, 0.000, 14:41:09.281
232, -46139.34, 36677.67, 26980.74, -44558.47, -87224.38, -187289.03, 41264.56, -100503.19, 0.000, 0.000, 0.000, 14:41:09.281
233, -28745.13, 34911.21, 26319.92, -20856.68, -87346.91, -187355.78, 40964.51, -100684.32, 0.000, 0.000, 0.000, 14:41:09.281
234, -18367.19, 34284.29, 30744.46, -10504.29, -87294.65, -187375.20, 41820.83, -100494.98, 0.000, 0.000, 0.000, 14:41:09.281
235, -39805.41, 35272.26, 31456.86, -35521.17, -87190.09, -187258.69, 41884.80, -100358.55, 0.000, 0.000, 0.000, 14:41:09.281
236, -46537.92, 35981.08, 28402.45, -45295.29, -87172.31, -187154.13, 41671.14, -100446.21, 0.388, 0.906, 0.246, 14:41:09.281
237, -33650.93, 34507.58, 26465.96, -26875.69, -87298.78, -187194.67, 41244.27, -100672.01, 0.000, 0.000, 0.000, 14:41:09.281
238, -16502.78, 33413.20, 30655.97, -8092.96, -87274.20, -187240.58, 41817.23, -100519.10, 0.000, 0.000, 0.000, 14:41:09.282
239, -36866.79, 33989.65, 32144.80, -31863.91, -87168.27, -187136.94, 41903.02, -100357.07, 0.000, 0.000, 0.000, 14:41:09.282
240, -46466.91, 34798.65, 29531.21, -45230.36, -87126.67, -187025.78, 41812.13, -100395.72, 0.000, 0.000, 0.000, 14:41:09.282
241, -38060.53, 33714.59, 26613.55, -32583.68, -87248.20, -187039.30, 41350.41, -100646.59, 0.000, 0.000, 0.000, 14:41:09.282
242, -16174.55, 32194.96, 30207.73, -7303.16, -87259.22, -187108.33, 41794.39, -100552.16, 0.000, 0.000, 0.000, 14:41:09.282
243, -33132.10, 32594.12, 32546.89, -27354.31, -87151.26, -187019.09, 41926.42, -100363.04, 0.000, 0.000, 0.000, 14:41:09.282
244, -45981.58, 33266.21, 30506.26, -44390.50, -87085.84, -186899.73, 41897.09, -100352.27, 0.000, 0.000, 0.000, 14:41:09.282
245, -41476.41, 32312.78, 26957.97, -37264.60, -87187.31, -186881.81, 41476.43, -100600.52, 0.000, 0.000, 0.000, 14:41:09.282
246, -17063.39, 30335.54, 29667.27, -7907.22, -87237.09, -186966.72, 41765.75, -100580.88, 0.382, 0.900, 0.254, 14:41:09.282
247, -28327.10, 30488.54, 32887.17, -21837.83, -87134.23, -186900.72, 41952.08, -100373.21, 0.000, 0.000, 0.000, 14:41:09.282
248, -44977.34, 31254.06, 31501.72, -42677.77, -87055.33, -186780.95, 41961.62, -100325.38, 0.000, 0.000, 0.000, 14:41:09.284
249, -43923.23, 30672.83, 27677.76, -40889.92, -87125.29, -186730.47, 41731.87, -100545.50, 0.000, 0.000, 0.000, 14:41:09.285
250, -19727.16, 28503.01, 29200.70, -10636.68, -87210.73, -186820.05, 41804.98, -100605.96, 0.000, 0.000, 0.000, 14:41:09.285
251, -23467.81, 28337.74, 33124.19, -16407.95, -87118.58, -186782.02, 41978.32, -100388.88, 0.000, 0.000, 0.000, 14:41:09.285
252, -43481.81, 29123.18, 32395.39, -40379.90, -87027.19, -186660.78, 41992.69, -100305.23, 0.000, 0.000, 0.000, 14:41:09.285
253, -45596.73, 28965.42, 28519.06, -43500.07, -87067.84, -186588.72, 41867.59, -100486.87, 0.000, 0.000, 0.000, 14:41:09.285
254, -24001.93, 26794.20, 28672.12, -15342.97, -87178.38, -186669.05, 41828.29, -100620.89, 0.000, 0.000, 0.000, 14:41:09.285
255, -19130.07, 26246.07, 33058.52, -11477.22, -87103.34, -186661.11, 42000.83, -100408.80, 0.000, 0.000, 0.000, 14:41:09.285
0, -41375.34, 27008.04, 33061.29, -37423.68, -87004.70, -186543.50, 42018.17, -100295.20, 0.384, 0.904, 0.254, 14:41:09.286
1, -46471.93, 27203.84, 29418.22, -44956.69, -87008.66, -186448.80, 41955.43, -100421.91, 0.000, 0.000, 0.000, 14:41:09.286
2, -29146.16, 25189.68, 28207.86, -21407.52, -87131.45, -186507.89, 41849.84, -100614.32, 0.000, 0.000, 0.000, 14:41:09.286
3, -16271.33, 24224.62, 32668.01, -8079.98, -87084.07, -186533.09, 42015.54, -100429.07, 0.000, 0.000, 0.000, 14:41:09.286
4, -38794.25, 24920.58, 33457.83, -34067.28, -86980.60, -186422.59, 42039.02, -100287.38, 0.000, 0.000, 0.000, 14:41:09.286
5, -46753.95, 25382.46, 30217.23, -45477.62, -86956.62, -186317.19, 41990.79, -100362.48, 0.000, 0.000, 0.000, 14:41:09.286
6, -34333.95, 23658.67, 27795.85, -27775.42, -87082.04, -186350.48, 41795.39, -100596.59, 0.000, 0.000, 0.000, 14:41:09.286
7, -14627.56, 22271.34, 31977.01, -5874.37, -87065.90, -186402.61, 42013.99, -100456.20, 0.000, 0.000, 0.000, 14:41:09.286
8, -35467.43, 22850.75, 33644.18, -30022.01, -86960.73, -186304.41, 42061.51, -100288.32, 0.000, 0.000, 0.000, 14:41:09.286
9, -46568.63, 23497.18, 30925.72, -45201.62, -86912.30, -186191.34, 42026.15, -100313.44, 0.000, 0.000, 0.000, 14:41:09.286
10, -38997.64, 22165.38, 27570.88, -33799.23, -87028.33, -186195.59, 41711.39, -100564.67, 0.384, 0.900, 0.258, 14:41:09.286
11, -15482.70, 20418.85, 31000.48, -6346.60, -87049.02, -186268.69, 41983.08, -100487.20, 0.000, 0.000, 0.000, 14:41:09.286
12, -31989.23, 20811.17, 33506.70, -25903.82, -86944.02, -186187.05, 42087.13, -100294.77, 0.000, 0.000, 0.000, 14:41:09.286
13, -46064.51, 21559.42, 31377.06, -44348.23, -86877.74, -186071.14, 42058.16, -100276.98, 0.000, 0.000, 0.000, 14:41:09.286
14, -42560.94, 20674.65, 27441.82, -38743.89, -86972.58, -186045.36, 41533.03, -100519.75, 0.000, 0.000, 0.000, 14:41:09.287
15, -17774.69, 18672.91, 29825.96, -8463.98, -87031.48, -186131.42, 41854.63, -100519.52, 0.000, 0.000, 0.000, 14:41:09.287
16, -27740.17, 18804.50, 33185.86, -21011.80, -86930.38, -186071.47, 42113.68, -100307.63, 0.000, 0.000, 0.000, 14:41:09.287
17, -45190.00, 19609.54, 31716.72, -42900.30, -86846.76, -185950.23, 42095.78, -100248.06, 0.000, 0.000, 0.000, 14:41:09.287
18, -44961.94, 19175.43, 27550.69, -42342.94, -86910.60, -185894.94, 41389.86, -100458.73, 0.000, 0.000, 0.000, 14:41:09.287
19, -21728.11, 17057.53, 28643.89, -12669.71, -87004.56, -185983.81, 41597.55, -100539.51, 0.000, 0.000, 0.000, 14:41:09.287
20, -23691.53, 16861.55, 32663.65, -16366.95, -86916.97, -185953.67, 42134.91, -100323.59, 0.386, 0.898, 0.246, 14:41:09.287
21, -43840.38, 17671.96, 31925.98, -40847.88, -86824.92, -185835.17, 42141.60, -100233.17, 0.000, 0.000, 0.000, 14:41:09.288
22, -46382.80, 17642.37, 27844.55, -44628.32, -86855.63, -185756.53, 41395.27, -100398.94, 0.000, 0.000, 0.000, 14:41:09.288
23, -26223.63, 15570.36, 27583.91, -17829.27, -86968.04, -185829.42, 41261.34, -100546.48, 0.000, 0.000, 0.000, 14:41:09.288
24, -19447.31, 14985.39, 32073.17, -11518.21, -86899.38, -185829.36, 42128.79, -100340.91, 0.000, 0.000, 0.000, 14:41:09.289
25, -41757.04, 15770.34, 32159.40, -37918.30, -86804.77, -185718.94, 42180.64, -100225.42, 0.000, 0.000, 0.000, 14:41:09.289
26, -47053.30, 16071.64, 28403.81, -45770.61, -86807.49, -185627.75, 41587.45, -100343.75, 0.000, 0.000, 0.000, 14:41:09.289
27, -31240.74, 14190.88, 26826.52, -23804.76, -86934.23, -185682.69, 41036.26, -100549.70, 0.000, 0.000, 0.000, 14:41:09.289
28, -16556.03, 13195.60, 31381.69, -8002.06, -86890.08, -185710.22, 42099.82, -100371.49, 0.000, 0.000, 0.000, 14:41:09.289
29, -38980.17, 13900.73, 32348.09, -34219.56, -86783.82, -185600.56, 42208.12, -100221.42, 0.000, 0.000, 0.000, 14:41:09.289
30, -47169.46, 14443.83, 29078.70, -46029.53, -86754.80, -185494.86, 41774.74, -100283.71, 0.388, 0.902, 0.262, 14:41:09.289
31, -36064.02, 12876.55, 26345.06, -29914.52, -86879.57, -185521.55, 40812.61, -100523.44, 0.000, 0.000, 0.000, 14:41:09.289
32, -14887.98, 11477.60, 30557.74, -5862.53, -86874.21, -185580.53, 42000.11, -100400.92, 0.000, 0.000, 0.000, 14:41:09.289
33, -35245.26, 12058.86, 32490.85, -29710.38, -86769.40, -185486.80, 42237.53, -100227.66, 0.000, 0.000, 0.000, 14:41:09.290
34, -46868.79, 12766.44, 29804.11, -45567.96, -86716.92, -185374.16, 41986.03, -100241.47, 0.000, 0.000, 0.000, 14:41:09.290
35, -40370.78, 11604.11, 26190.28, -35585.92, -86827.56, -185369.77, 40791.71, -100489.77, 0.000, 0.000, 0.000, 14:41:09.290
36, -15881.34, 9874.24, 29569.86, -6500.98, -86855.92, -185444.45, 41843.87, -100430.23, 0.000, 0.000, 0.000, 14:41:09.290
37, -31469.15, 10256.23, 32380.01, -25218.04, -86749.27, -185365.83, 42260.69, -100230.67, 0.000, 0.000, 0.000, 14:41:09.290
38, -46322.25, 11049.94, 30273.04, -44635.34, -86678.25, -185248.70, 42088.38, -100200.68, 0.000, 0.000, 0.000, 14:41:09.290
39, -43706.51, 10325.37, 26076.84, -40326.64, -86768.48, -185217.98, 40569.44, -100437.80, 0.000, 0.000, 0.000, 14:41:09.290
40, -18767.22, 8366.35, 28283.65, -9407.89, -86834.49, -185303.36, 41461.57, -100457.16, 0.384, 0.896, 0.256, 14:41:09.290
41, -27164.16, 8474.24, 31955.64, -20305.26, -86734.71, -185249.38, 42281.86, -100243.01, 0.000, 0.000, 0.000, 14:41:09.291
42, -45435.35, 9305.66, 30535.75, -43225.75, -86652.62, -185133.23, 42192.07, -100178.75, 0.000, 0.000, 0.000, 14:41:09.291
43, -45912.14, 9002.17, 26159.59, -43681.05, -86709.92, -185073.53, 40517.92, -100378.80, 0.000, 0.000, 0.000, 14:41:09.291
44, -23453.55, 6958.03, 26944.56, -14529.44, -86805.41, -185155.27, 40911.43, -100473.55, 0.000, 0.000, 0.000, 14:41:09.291
45, -23495.17, 6724.72, 31219.35, -15994.51, -86721.23, -185132.16, 42275.44, -100259.64, 0.000, 0.000, 0.000, 14:41:09.291
46, -44212.93, 7550.89, 30539.08, -41384.23, -86629.46, -185017.14, 42263.57, -100163.30, 0.000, 0.000, 0.000, 14:41:09.291
47, -47176.02, 7624.00, 26262.20, -45729.07, -86655.41, -184937.56, 40460.93, -100317.46, 0.000, 0.000, 0.000, 14:41:09.291
48, -28748.12, 5641.76, 25589.75, -20721.88, -86775.64, -185009.67, 40078.64, -100483.88, 0.000, 0.000, 0.000, 14:41:09.291
49, -20358.37, 5011.37, 30201.21, -12187.53, -86713.03, -185017.77, 42186.79, -100286.44, 0.000, 0.000, 0.000, 14:41:09.291
50, -42454.39, 5792.99, 30351.84, -38914.97, -86612.91, -184905.33, 42329.60, -100159.84, 0.384, 0.900, 0.246, 14:41:09.291
51, -47714.87, 6162.89, 26430.11, -46714.18, -86606.03, -184808.89, 40609.70, -100260.18, 0.000, 0.000, 0.000, 14:41:09.291
52, -34294.70, 4392.48, 24380.70, -27540.19, -86735.54, -184858.86, 39180.77, -100476.92, 0.000, 0.000, 0.000, 14:41:09.291
53, -19050.23, 3352.96, 28863.86, -10326.28, -86699.71, -184893.98, 41927.98, -100312.10, 0.000, 0.000, 0.000, 14:41:09.292
54, -40390.81, 4044.28, 29878.96, -36176.66, -86595.28, -184790.17, 42373.30, -100158.50, 0.000, 0.000, 0.000, 14:41:09.292
55, -47851.35, 4631.97, 26429.69, -47018.55, -86563.30, -184685.97, 40695.82, -100208.14, 0.000, 0.000, 0.000, 14:41:09.292
56, -39210.79, 3181.82, 23199.68, -33976.46, -86688.00, -184707.44, 38020.61, -100452.52, 0.000, 0.000, 0.000, 14:41:09.292
57, -18861.12, 1739.06, 27194.34, -9781.70, -86690.50, -184771.56, 41306.63, -100346.68, 0.000, 0.000, 0.000, 14:41:09.292
58, -37494.91, 2288.46, 29194.19, -32619.40, -86585.27, -184682.02, 42412.81, -100168.71, 0.000, 0.000, 0.000, 14:41:09.292
59, -47656.96, 3015.12, 26355.25, -46758.20, -86528.45, -184568.88, 40896.05, -100168.27, 0.000, 0.000, 0.000, 14:41:09.292
60, -43141.19, 1976.07, 22315.18, -39390.30, -86636.97, -184559.89, 37076.85, -100415.12, 0.000, 0.000, 0.000, 14:41:09.292
61, -21198.77, 221.53, 25324.99, -12008.72, -86674.79, -184638.52, 40229.81, -100375.60, 0.390, 0.900, 0.252, 14:41:09.292
62, -34735.97, 562.12, 28198.54, -29110.87, -86572.10, -184568.94, 42401.13, -100177.30, 0.000, 0.000, 0.000, 14:41:09.292
63, -47348.82, 1360.91, 25992.64, -46223.68, -86497.88, -184452.20, 40911.04, -100134.56, 0.000, 0.000, 0.000, 14:41:09.292
64, -45843.74, 766.93, 21476.00, -43365.71, -86579.19, -184412.48, 36102.74, -100359.20, 0.000, 0.000, 0.000, 14:41:09.292
65, -24547.60, -1178.88, 23266.15, -15707.60, -86652.44, -184497.97, 38435.05, -100397.98, 0.000, 0.000, 0.000, 14:41:09.292
66, -31128.42, -1122.62, 27033.00, -24756.39, -86556.84, -184453.16, 42203.51, -100187.58, 0.000, 0.000, 0.000, 14:41:09.292
67, -46742.44, -289.41, 25580.39, -45271.80, -86472.73, -184338.11, 40868.20, -100112.14, 0.000, 0.000, 0.000, 14:41:09.292
68, -47477.54, -458.01, 21014.19, -45912.88, -86524.13, -184274.75, 35523.65, -100300.86, 0.000, 0.000, 0.000, 14:41:09.292
69, -29369.90, -2442.20, 21349.85, -21344.46, -86630.35, -184359.28, 36330.55, -100417.98, 0.000, 0.000, 0.000, 14:41:09.293
70, -28555.16, -2731.25, 25654.73, -21410.20, -86551.72, -184345.83, 41529.65, -100209.17, 0.000, 0.000, 0.000, 14:41:09.293
71, -45995.06, -1911.07, 24966.27, -44102.47, -86455.74, -184229.69, 40457.26, -100100.36, 0.388, 0.902, 0.248, 14:41:09.293
72, -48380.82, -1712.30, 20561.75, -47401.86, -86474.11, -184146.05, 34797.66, -100240.69, 0.000, 0.000, 0.000, 14:41:09.293
73, -34323.98, -3597.04, 19421.74, -27512.89, -86597.95, -184214.06, 33860.72, -100422.79, 0.000, 0.000, 0.000, 14:41:09.293
74, -26133.46, -4273.56, 24029.29, -18245.71, -86542.15, -184231.41, 39596.96, -100229.84, 0.000, 0.000, 0.000, 14:41:09.293
75, -44688.07, -3472.37, 24286.24, -42204.03, -86443.27, -184123.53, 39566.03, -100096.96, 0.000, 0.000, 0.000, 14:41:09.293
76, -48681.32, -2982.62, 20341.56, -48001.06, -86430.33, -184025.50, 34356.17, -100185.55, 0.000, 0.000, 0.000, 14:41:09.293
77, -38905.40, -4619.01, 17890.54, -33495.68, -86557.38, -184066.44, 31849.22, -100411.90, 0.000, 0.000, 0.000, 14:41:09.293
78, -25024.21, -5696.72, 22329.73, -16631.08, -86529.50, -184109.72, 37419.19, -100254.01, 0.000, 0.000, 0.000, 14:41:09.293
79, -42960.03, -4977.96, 23559.23, -39796.41, -86427.53, -184012.23, 38725.09, -100094.93, 0.000, 0.000, 0.000, 14:41:09.293
80, -48713.66, -4278.88, 20175.22, -48120.44, -86388.59, -183904.98, 34115.82, -100132.28, 0.000, 0.000, 0.000, 14:41:09.293
81, -42733.88, -5556.78, 16661.39, -38689.24, -86510.91, -183919.16, 30181.22, -100385.37, 0.388, 0.904, 0.248, 14:41:09.293
82, -25098.75, -7019.39, 20515.62, -16340.85, -86522.03, -183988.72, 35118.12, -100288.72, 0.000, 0.000, 0.000, 14:41:09.293
83, -40489.69, -6452.19, 22789.57, -36427.53, -86416.91, -183904.38, 37750.93, -100101.81, 0.000, 0.000, 0.000, 14:41:09.294
84, -48508.18, -5632.21, 20121.40, -47843.30, -86357.62, -183792.73, 34007.30, -100094.62, 0.000, 0.000, 0.000, 14:41:09.294
85, -45561.21, -6486.50, 15955.41, -42769.91, -86459.52, -183774.61, 29165.31, -100344.17, 0.000, 0.000, 0.000, 14:41:09.294
86, -26647.46, -8234.40, 18790.06, -17992.08, -86506.95, -183857.52, 33011.40, -100319.32, 0.000, 0.000, 0.000, 14:41:09.294
87, -37463.64, -7882.92, 22032.87, -32500.51, -86405.47, -183794.66, 36899.36, -100111.49, 0.000, 0.000, 0.000, 14:41:09.294
88, -48203.30, -6989.81, 20071.42, -47366.03, -86328.65, -183678.52, 34053.57, -100062.88, 0.000, 0.000, 0.000, 14:41:09.294
89, -47513.82, -7397.85, 15546.29, -45657.50, -86403.50, -183632.63, 28517.88, -100288.83, 0.000, 0.000, 0.000, 14:41:09.294
90, -29695.34, -9313.52, 17065.58, -21490.98, -86488.33, -183722.08, 30847.62, -100346.72, 0.000, 0.000, 0.000, 14:41:09.761
91, -34376.89, -9263.81, 21123.05, -28345.79, -86396.71, -183686.05, 35800.43, -100128.08, 0.386, 0.900, 0.254, 14:41:09.761
92, -47716.68, -8353.09, 19944.57, -46571.55, -86311.75, -183573.00, 33974.56, -100049.29, 0.000, 0.000, 0.000, 14:41:09.761
93, -48689.92, -8356.40, 15417.94, -47491.96, -86353.57, -183502.16, 28208.10, -100232.69, 0.000, 0.000, 0.000, 14:41:09.761
94, -33687.92, -10294.34, 15441.66, -26415.54, -86461.84, -183580.25, 28772.91, -100363.33, 0.000, 0.000, 0.000, 14:41:09.761
95, -31604.11, -10614.33, 20015.18, -24607.46, -86388.38, -183575.34, 34497.19, -100149.83, 0.000, 0.000, 0.000, 14:41:09.761
96, -46972.79, -9723.08, 19651.94, -45417.83, -86292.91, -183462.47, 33743.20, -100037.93, 0.000, 0.000, 0.000, 14:41:09.762
97, -49266.42, -9387.33, 15387.90, -48475.03, -86303.13, -183374.47, 28080.34, -100171.64, 0.000, 0.000, 0.000, 14:41:09.762
98, -38029.68, -11196.41, 13926.77, -32030.88, -86429.99, -183437.19, 26792.54, -100367.91, 0.000, 0.000, 0.000, 14:41:09.762
99, -29727.19, -11927.07, 18630.16, -21920.53, -86382.36, -183463.41, 32913.79, -100178.86, 0.000, 0.000, 0.000, 14:41:09.762
100, -45893.96, -11080.18, 19183.76, -43766.52, -86282.00, -183357.20, 33208.19, -100039.03, 0.000, 0.000, 0.000, 14:41:09.762
101, -49456.27, -10480.71, 15373.19, -48854.81, -86261.97, -183256.06, 27819.90, -100118.42, 0.382, 0.904, 0.248, 14:41:09.762
102, -41976.60, -12019.83, 12615.95, -37346.25, -86391.26, -183292.80, 24854.87, -100356.55, 0.000, 0.000, 0.000, 14:41:09.762
103, -29057.20, -13158.99, 17005.50, -20732.05, -86376.99, -183347.94, 30836.73, -100213.39, 0.000, 0.000, 0.000, 14:41:09.762
104, -44417.43, -12410.87, 18541.82, -41594.98, -86272.30, -183251.80, 32450.35, -100044.84, 0.000, 0.000, 0.000, 14:41:09.762
105, -49444.88, -11627.53, 15310.63, -48892.67, -86227.46, -183142.83, 27606.46, -100073.09, 0.000, 0.000, 0.000, 14:41:09.762
106, -45111.43, -12792.82, 11535.38, -41778.11, -86343.69, -183147.03, 23227.53, -100326.45, 0.000, 0.000, 0.000, 14:41:09.762
107, -29260.71, -14316.14, 15224.76, -20666.00, -86363.09, -183220.59, 28479.16, -100244.15, 0.000, 0.000, 0.000, 14:41:09.762
108, -42166.21, -13745.34, 17814.96, -38419.32, -86260.14, -183142.98, 31611.67, -100051.57, 0.000, 0.000, 0.000, 14:41:09.762
109, -49259.36, -12860.77, 15289.02, -48649.22, -86196.64, -183030.73, 27647.34, -100036.03, 0.000, 0.000, 0.000, 14:41:09.762
110, -47437.48, -13597.10, 10915.88, -45183.47, -86293.60, -183006.59, 22351.99, -100283.31, 0.000, 0.000, 0.000, 14:41:09.762
111, -31411.60, -15386.38, 13439.30, -23087.99, -86352.07, -183093.66, 26248.03, -100278.62, 0.380, 0.902, 0.256, 14:41:09.762
112, -39920.93, -15062.24, 16908.27, -35315.55, -86252.79, -183037.53, 30651.93, -100065.72, 0.000, 0.000, 0.000, 14:41:09.763
113, -49042.79, -14127.89, 15074.28, -48327.40, -86173.62, -182922.17, 27578.65, -100010.40, 0.000, 0.000, 0.000, 14:41:09.763
114, -48979.67, -14425.93, 10385.16, -47514.58, -86241.63, -182870.88, 21634.61, -100228.48, 0.000, 0.000, 0.000, 14:41:09.763
115, -34289.50, -16364.92, 11503.46, -26712.72, -86332.56, -182958.39, 23831.12, -100304.59, 0.000, 0.000, 0.000, 14:41:09.763
116, -37200.92, -16379.02, 15761.18, -31562.61, -86244.31, -182929.78, 29415.95, -100083.82, 0.000, 0.000, 0.000, 14:41:09.763
117, -48630.53, -15440.72, 14726.47, -47704.07, -86155.18, -182815.56, 27438.24, -99995.58, 0.000, 0.000, 0.000, 14:41:09.763
118, -49824.68, -15350.22, 10133.25, -48866.59, -86189.58, -182740.69, 21363.82, -100168.18, 0.000, 0.000, 0.000, 14:41:09.763
119, -38105.75, -17270.50, 9715.23, -31617.30, -86304.69, -182816.81, 21591.92, -100316.88, 0.000, 0.000, 0.000, 14:41:09.763
120, -35409.90, -17667.02, 14353.04, -28866.65, -86235.58, -182818.78, 27770.61, -100105.05, 0.000, 0.000, 0.000, 14:41:09.763
121, -48088.61, -16762.40, 14151.25, -46885.06, -86139.80, -182708.88, 26970.02, -99987.59, 0.380, 0.904, 0.256, 14:41:09.763
122, -50246.65, -16342.95, 9841.50, -49564.90, -86141.79, -182617.08, 21030.06, -100107.02, 0.000, 0.000, 0.000, 14:41:09.763
123, -41678.78, -18100.26, 7944.55, -36471.27, -86270.45, -182674.31, 19352.94, -100316.34, 0.000, 0.000, 0.000, 14:41:09.763
124, -33712.15, -18931.61, 12671.18, -26272.11, -86232.34, -182710.39, 25836.98, -100138.25, 0.000, 0.000, 0.000, 14:41:09.763
125, -47114.82, -18099.79, 13453.51, -45403.68, -86131.95, -182608.06, 26457.09, -99991.73, 0.000, 0.000, 0.000, 14:41:09.763
126, -50313.15, -17442.29, 9682.42, -49754.16, -86103.72, -182503.59, 21035.03, -100056.40, 0.000, 0.000, 0.000, 14:41:09.763
127, -44928.64, -18891.13, 6561.31, -41054.43, -86229.59, -182531.41, 17658.23, -100299.25, 0.000, 0.000, 0.000, 14:41:09.763
128, -33513.91, -20125.31, 10852.51, -25615.68, -86223.91, -182592.63, 23697.90, -100169.48, 0.000, 0.000, 0.000, 14:41:09.763
129, -45872.06, -19415.84, 12641.16, -43607.56, -86121.29, -182503.13, 25756.36, -99996.02, 0.000, 0.000, 0.000, 14:41:09.763
130, -50254.57, -18596.14, 9500.54, -49724.18, -86069.63, -182392.11, 21007.04, -100010.84, 0.000, 0.000, 0.000, 14:41:09.764
131, -47391.29, -19646.89, 5460.11, -44664.53, -86183.83, -182391.44, 16262.79, -100266.59, 0.382, 0.900, 0.248, 14:41:09.764
132, -34023.11, -21237.15, 8932.72, -25908.53, -86214.84, -182471.41, 21407.70, -100204.21, 0.000, 0.000, 0.000, 14:41:09.764
133, -44002.87, -20719.02, 11793.18, -40833.95, -86111.57, -182398.36, 25010.17, -100004.70, 0.000, 0.000, 0.000, 14:41:09.764
134, -50045.38, -19809.75, 9409.37, -49493.22, -86044.78, -182286.98, 21209.26, -99979.44, 0.000, 0.000, 0.000, 14:41:09.764
135, -49090.33, -20420.71, 4884.79, -47264.73, -86136.09, -182257.38, 15637.79, -100222.00, 0.000, 0.000, 0.000, 14:41:09.764
136, -35790.66, -22243.92, 7133.20, -28036.57, -86203.03, -182345.44, 19317.16, -100236.88, 0.000, 0.000, 0.000, 14:41:09.764
137, -41935.05, -21986.65, 10900.77, -37815.64, -86108.59, -182299.08, 24246.86, -100023.18, 0.000, 0.000, 0.000, 14:41:09.764
138, -49799.73, -21045.37, 9264.42, -49183.58, -86025.16, -182183.34, 21468.69, -99957.55, 0.000, 0.000, 0.000, 14:41:09.764
139, -50201.43, -21229.11, 4543.71, -48990.46, -86085.44, -182126.86, 15399.21, -100165.59, 0.000, 0.000, 0.000, 14:41:09.764
140, -38092.96, -23164.86, 5362.25, -31098.49, -86185.80, -182215.30, 17259.26, -100263.48, 0.000, 0.000, 0.000, 14:41:09.764
141, -39394.55, -23258.13, 9915.86, -34066.32, -86101.63, -182194.36, 23303.50, -100043.25, 0.382, 0.894, 0.248, 14:41:09.764
142, -49368.03, -22316.52, 9152.46, -48565.87, -86011.32, -182081.97, 21672.77, -99947.90, 0.000, 0.000, 0.000, 14:41:09.764
143, -50749.10, -22121.95, 4631.42, -49921.59, -86040.04, -182005.95, 15580.64, -100110.33, 0.000, 0.000, 0.000, 14:41:09.764
144, -41151.77, -23991.91, 3918.71, -35269.02, -86159.78, -182078.59, 15470.16, -100276.16, 0.000, 0.000, 0.000, 14:41:09.764
145, -37567.80, -24472.30, 8792.37, -31295.55, -86097.33, -182088.61, 22089.09, -100070.19, 0.000, 0.000, 0.000, 14:41:09.764
146, -48778.16, -23571.66, 8915.98, -47734.18, -86001.44, -181982.11, 21743.57, -99946.58, 0.000, 0.000, 0.000, 14:41:09.764
147, -50991.70, -23070.08, 4743.58, -50371.55, -85993.98, -181886.05, 15860.26, -100050.56, 0.000, 0.000, 0.000, 14:41:09.765
148, -44073.44, -24740.05, 2573.11, -39456.01, -86121.07, -181934.83, 13789.60, -100268.36, 0.000, 0.000, 0.000, 14:41:09.765
149, -35970.73, -25651.31, 7419.24, -28781.87, -86087.25, -181974.36, 20537.27, -100097.08, 0.000, 0.000, 0.000, 14:41:09.765
150, -47789.23, -24829.81, 8566.71, -46260.42, -85985.64, -181874.91, 21649.09, -99943.23, 0.000, 0.000, 0.000, 14:41:09.765
151, -50959.56, -24114.69, 4974.96, -50417.58, -85953.38, -181772.03, 16352.40, -99997.30, 0.384, 0.900, 0.248, 14:41:09.765
152, -46811.05, -25456.54, 1620.23, -43435.05, -86079.29, -181795.16, 12629.81, -100247.30, 0.000, 0.000, 0.000, 14:41:09.765
153, -35983.09, -26762.28, 5885.01, -28294.98, -86081.66, -181860.78, 18735.21, -100131.92, 0.000, 0.000, 0.000, 14:41:09.765
154, -46598.63, -26083.93, 8020.83, -44474.49, -85979.54, -181776.31, 21279.73, -99952.52, 0.000, 0.000, 0.000, 14:41:09.765
155, -50895.43, -25234.04, 5018.77, -50368.07, -85925.58, -181667.75, 16649.08, -99958.56, 0.000, 0.000, 0.000, 14:41:09.765
156, -48938.00, -26172.13, 740.83, -46616.04, -86032.04, -181657.45, 11521.41, -100210.49, 0.000, 0.000, 0.000, 14:41:09.765
157, -36919.76, -27822.65, 4022.38, -29149.94, -86072.74, -181741.11, 16502.16, -100167.66, 0.000, 0.000, 0.000, 14:41:09.765
158, -44963.82, -27355.09, 7198.98, -41961.15, -85973.92, -181677.52, 20592.66, -99966.23, 0.000, 0.000, 0.000, 14:41:09.765
159, -50712.62, -26433.20, 4913.90, -50172.11, -85903.09, -181565.94, 16884.06, -99930.73, 0.000, 0.000, 0.000, 14:41:09.765
160, -50399.85, -26935.01, 180.18, -48861.70, -85987.78, -181530.63, 10915.61, -100166.91, 0.000, 0.000, 0.000, 14:41:09.765
161, -39234.84, -28791.19, 2075.78, -31979.27, -86064.12, -181620.19, 14169.28, -100203.05, 0.384, 0.900, 0.248, 14:41:09.765
162, -43475.41, -28612.11, 6071.58, -39567.53, -85972.45, -181581.03, 19451.65, -99987.22, 0.000, 0.000, 0.000, 14:41:09.765
163, -50517.64, -27673.80, 4524.73, -49931.83, -85888.09, -181467.22, 16718.23, -99914.73, 0.000, 0.000, 0.000, 14:41:09.765
164, -51315.71, -27759.37, -359.57, -50295.65, -85940.58, -181405.80, 10288.04, -100111.88, 0.000, 0.000, 0.000, 14:41:09.766
165, -41847.23, -29694.22, -20.07, -35465.89, -86046.21, -181490.50, 11581.42, -100227.32, 0.000, 0.000, 0.000, 14:41:09.766
166, -41833.95, -29882.78, 4643.37, -36811.15, -85966.98, -181477.73, 17908.62, -100009.13, 0.000, 0.000, 0.000, 14:41:09.766
167, -50168.98, -28954.49, 3981.11, -49457.34, -85876.54, -181368.47, 16443.80, -99907.51, 0.000, 0.000, 0.000, 14:41:09.766
168, -51724.30, -28679.41, -658.08, -51006.28, -85896.27, -181287.17, 10097.09, -100055.44, 0.000, 0.000, 0.000, 14:41:09.766
169, -44687.13, -30514.60, -1875.20, -39515.69, -86019.32, -181354.47, 9361.71, -100236.23, 0.000, 0.000, 0.000, 14:41:09.766
170, -40867.91, -31104.91, 3001.01, -34959.56, -85965.63, -181374.28, 16125.89, -100039.19, 0.000, 0.000, 0.000, 14:41:09.766
171, -49700.04, -30234.73, 3266.62, -48790.23, -85869.27, -181270.55, 16006.22, -99909.01, 0.386, 0.898, 0.250, 14:41:09.766
172, -51895.77, -29680.70, -946.86, -51313.93, -85857.67, -181174.81, 9998.36, -100002.13, 0.000, 0.000, 0.000, 14:41:09.766
173, -47156.12, -31285.15, -3589.73, -43206.57, -85986.35, -181217.91, 7306.09, -100231.05, 0.000, 0.000, 0.000, 14:41:09.766
174, -40164.61, -32306.23, 1142.60, -33372.98, -85962.48, -181265.88, 14058.38, -100073.80, 0.000, 0.000, 0.000, 14:41:09.766
175, -48951.08, -31530.24, 2469.15, -47641.64, -85863.38, -181172.61, 15492.24, -99915.85, 0.000, 0.000, 0.000, 14:41:09.766
176, -51860.67, -30780.09, -1122.62, -51320.09, -85825.76, -181068.25, 10118.77, -99957.13, 0.000, 0.000, 0.000, 14:41:09.766
177, -49299.83, -32027.30, -4880.73, -46573.37, -85947.30, -181082.25, 5824.60, -100209.28, 0.000, 0.000, 0.000, 14:41:09.766
178, -40907.04, -33435.62, -880.64, -33834.08, -85958.48, -181152.09, 11784.93, -100109.80, 0.000, 0.000, 0.000, 14:41:09.766
179, -48129.29, -32817.28, 1445.44, -46309.04, -85857.25, -181073.06, 14679.42, -99924.61, 0.000, 0.000, 0.000, 14:41:09.766
180, -51790.06, -31951.64, -1505.01, -51262.56, -85801.46, -180966.22, 10052.21, -99921.73, 0.000, 0.000, 0.000, 14:41:09.766
181, -50849.61, -32784.89, -6073.15, -49030.76, -85903.65, -180949.48, 4451.82, -100171.44, 0.000, 0.000, 0.000, 14:41:09.767
182, -42054.52, -34513.08, -3158.66, -35094.96, -85950.21, -181031.95, 9082.03, -100144.77, 0.390, 0.894, 0.250, 14:41:09.767
183, -47024.16, -34128.95, 214.11, -44419.11, -85850.56, -180972.02, 13521.49, -99936.41, 0.000, 0.000, 0.000, 14:41:09.767
184, -51597.82, -33207.70, -1972.43, -51078.45, -85775.24, -180859.00, 9888.99, -99889.85, 0.000, 0.000, 0.000, 14:41:09.767
185, -51844.67, -33602.96, -6872.62, -50663.85, -85850.86, -180814.94, 3594.07, -100115.78, 0.000, 0.000, 0.000, 14:41:09.767
186, -43997.38, -35501.59, -5396.31, -37760.14, -85936.51, -180905.00, 6421.88, -100173.30, 0.000, 0.000, 0.000, 14:41:09.767
187, -46072.75, -35423.80, -1214.59, -42623.81, -85848.35, -180873.42, 12070.01, -99956.15, 0.000, 0.000, 0.000, 14:41:09.767
188, -51396.70, -34495.51, -2610.62, -50855.49, -85761.63, -180760.20, 9518.80, -99875.03, 0.000, 0.000, 0.000, 14:41:09.767
189, -52459.74, -34483.91, -7552.81, -51652.60, -85803.65, -180690.53, 2898.91, -100057.34, 0.000, 0.000, 0.000, 14:41:09.767
190, -45917.70, -36413.61, -7635.44, -40648.10, -85915.63, -180772.31, 3706.79, -100191.40, 0.000, 0.000, 0.000, 14:41:09.767
191, -44987.06, -36715.09, -2833.02, -40524.85, -85847.84, -180773.95, 10369.06, -99982.61, 0.000, 0.000, 0.000, 14:41:09.767
192, -51081.85, -35809.80, -3297.69, -50456.74, -85756.51, -180666.55, 9185.63, -99873.83, 0.392, 0.892, 0.248, 14:41:09.767
193, -52720.14, -35460.13, -7913.50, -52102.56, -85765.02, -180578.27, 2744.39, -100004.07, 0.000, 0.000, 0.000, 14:41:09.767
194, -47993.69, -37257.27, -9545.45, -43926.74, -85890.77, -180639.75, 1478.70, -100198.53, 0.000, 0.000, 0.000, 14:41:09.767
195, -44482.32, -37973.64, -4610.32, -39220.25, -85843.80, -180667.25, 8461.99, -100009.62, 0.000, 0.000, 0.000, 14:41:09.767
196, -50680.61, -37131.77, -4103.91, -49885.20, -85746.63, -180565.75, 8694.63, -99871.68, 0.000, 0.000, 0.000, 14:41:09.767
197, -52822.11, -36522.88, -8242.54, -52273.15, -85727.56, -180466.70, 2656.77, -99950.11, 0.000, 0.000, 0.000, 14:41:09.767
198, -49786.48, -38049.64, -11241.34, -46873.46, -85857.77, -180504.44, -537.54, -100188.79, 0.000, 0.000, 0.000, 14:41:09.768
199, -44409.20, -39187.86, -6599.04, -38542.25, -85843.99, -180560.48, 6212.98, -100046.36, 0.000, 0.000, 0.000, 14:41:09.768
200, -50116.39, -38455.26, -4998.90, -49001.23, -85743.16, -180469.70, 8067.44, -99880.15, 0.000, 0.000, 0.000, 14:41:09.768
201, -52758.74, -37668.21, -8473.14, -52233.32, -85699.29, -180363.22, 2762.63, -99907.80, 0.000, 0.000, 0.000, 14:41:09.768
202, -51226.31, -38854.08, -12506.90, -49265.95, -85817.84, -180369.61, -1971.18, -100161.77, 0.392, 0.890, 0.250, 14:41:09.768
203, -45063.44, -40382.09, -8702.14, -39068.01, -85838.85, -180444.47, 3800.89, -100080.87, 0.000, 0.000, 0.000, 14:41:09.768
204, -49486.74, -39496.22, -6066.31, -47879.63, -85735.61, -180367.86, 7169.17, -99887.15, 0.000, 0.000, 0.000, 14:41:09.768
205, -52631.36, -38457.61, -8837.12, -52118.07, -85673.61, -180258.34, 2729.62, -99870.85, 0.000, 0.000, 0.000, 14:41:09.768
206, -52297.63, -39227.85, -13554.23, -51000.78, -85773.95, -180237.91, -3140.64, -100119.90, 0.000, 0.000, 0.000, 14:41:09.768
207, -46041.55, -41038.52, -10943.24, -40374.31, -85834.00, -180326.25, 1195.66, -100117.98, 0.000, 0.000, 0.000, 14:41:09.768
208, -48754.20, -40448.52, -7287.50, -46455.89, -85736.10, -180273.00, 6078.29, -99905.86, 0.000, 0.000, 0.000, 14:41:09.768
209, -52414.44, -39155.23, -9256.55, -51906.65, -85658.59, -180160.86, 2671.15, -99850.27, 0.000, 0.000, 0.000, 14:41:09.769
210, -52993.82, -39404.98, -14210.32, -52112.29, -85726.73, -180110.38, -3836.03, -100066.32, 0.000, 0.000, 0.000, 14:41:10.240
211, -47389.86, -41359.71, -13072.98, -42480.54, -85818.58, -180198.38, -1396.16, -100142.98, 0.000, 0.000, 0.000, 14:41:10.240
212, -48099.23, -41122.09, -8634.57, -45032.77, -85733.58, -180174.55, 4688.99, -99925.34, 0.394, 0.902, 0.252, 14:41:10.240
213, -52152.47, -39826.40, -9755.33, -51633.09, -85645.53, -180063.28, 2487.10, -99836.97, 0.000, 0.000, 0.000, 14:41:10.241
214, -53379.34, -39553.29, -14599.20, -52721.32, -85678.81, -179988.53, -4164.85, -100005.88, 0.000, 0.000, 0.000, 14:41:10.241
215, -48759.46, -41501.27, -15040.73, -44793.25, -85793.93, -180064.84, -3805.54, -100155.28, 0.000, 0.000, 0.000, 14:41:10.241
216, -47403.29, -41674.16, -10088.50, -43523.00, -85729.42, -180072.39, 3168.54, -99948.70, 0.000, 0.000, 0.000, 14:41:10.241
217, -51841.02, -40443.96, -10264.26, -51254.61, -85637.48, -179967.95, 2314.32, -99833.17, 0.000, 0.000, 0.000, 14:41:10.241
218, -53571.43, -39725.35, -14770.64, -53008.37, -85639.48, -179877.33, -4180.98, -99950.07, 0.000, 0.000, 0.000, 14:41:10.241
219, -50273.45, -41490.87, -16756.34, -47334.71, -85766.86, -179932.70, -5959.58, -100157.20, 0.000, 0.000, 0.000, 14:41:10.241
220, -47289.96, -42117.26, -11809.81, -42788.03, -85729.40, -179970.09, 1187.01, -99980.11, 0.000, 0.000, 0.000, 14:41:10.241
221, -51470.68, -41000.05, -10981.05, -50731.84, -85630.89, -179871.55, 1875.96, -99835.09, 0.000, 0.000, 0.000, 14:41:10.241
222, -53575.54, -39997.06, -14912.99, -53047.08, -85603.87, -179769.39, -4031.41, -99898.30, 0.390, 0.900, 0.256, 14:41:10.241
223, -51471.86, -41396.26, -18162.87, -49391.70, -85732.95, -179799.95, -7617.16, -100143.66, 0.000, 0.000, 0.000, 14:41:10.241
224, -47258.02, -42461.94, -13607.67, -42354.07, -85728.52, -179862.45, -817.43, -100016.48, 0.000, 0.000, 0.000, 14:41:10.241
225, -50979.79, -41481.50, -11665.08, -49946.22, -85628.21, -179776.84, 1542.02, -99844.70, 0.000, 0.000, 0.000, 14:41:10.242
226, -53462.96, -40315.30, -14932.48, -52954.77, -85579.88, -179670.30, -3595.14, -99860.69, 0.000, 0.000, 0.000, 14:41:10.242
227, -52516.25, -41247.46, -19152.83, -51092.29, -85693.41, -179668.59, -8716.93, -100114.06, 0.000, 0.000, 0.000, 14:41:10.242
228, -47819.88, -42696.48, -15526.17, -42925.68, -85724.59, -179747.97, -3034.81, -100052.75, 0.000, 0.000, 0.000, 14:41:10.242
229, -50496.84, -41924.07, -12532.82, -49009.48, -85622.80, -179678.11, 907.35, -99854.54, 0.000, 0.000, 0.000, 14:41:10.242
230, -53272.34, -40706.01, -15057.18, -52775.35, -85556.55, -179568.30, -3299.61, -99827.83, 0.000, 0.000, 0.000, 14:41:10.242
231, -53297.20, -41096.52, -19843.19, -52318.52, -85646.23, -179537.13, -9446.63, -100066.86, 0.000, 0.000, 0.000, 14:41:10.242
232, -48557.96, -42797.64, -17500.61, -44019.28, -85713.17, -179624.56, -5379.08, -100083.46, 0.388, 0.892, 0.246, 14:41:10.242
233, -49967.23, -42303.20, -13523.61, -47859.75, -85618.06, -179578.95, 62.88, -99869.29, 0.000, 0.000, 0.000, 14:41:10.242
234, -53027.16, -41076.96, -15255.04, -52537.15, -85538.34, -179467.94, -3041.13, -99805.66, 0.000, 0.000, 0.000, 14:41:10.242
235, -53829.64, -40988.11, -20227.59, -53115.36, -85601.19, -179414.34, -9729.63, -100013.70, 0.000, 0.000, 0.000, 14:41:10.242
236, -49670.38, -42784.50, -19451.09, -45816.49, -85700.30, -179500.06, -7725.59, -100110.27, 0.000, 0.000, 0.000, 14:41:10.243
237, -49613.54, -42650.37, -14773.07, -46838.66, -85618.33, -179482.58, -1166.47, -99892.38, 0.000, 0.000, 0.000, 14:41:10.244
238, -52774.90, -41460.92, -15651.14, -52275.57, -85530.98, -179374.91, -3046.16, -99798.57, 0.000, 0.000, 0.000, 14:41:10.244
239, -54152.64, -40999.22, -20483.52, -53567.90, -85558.83, -179298.38, -9847.42, -99956.75, 0.000, 0.000, 0.000, 14:41:10.244
240, -50772.81, -42621.24, -21329.91, -47731.86, -85676.27, -179367.53, -10033.94, -100120.86, 0.000, 0.000, 0.000, 14:41:10.244
241, -49336.51, -42881.84, -16268.25, -45905.59, -85615.09, -179379.72, -2750.20, -99917.37, 0.000, 0.000, 0.000, 14:41:10.244
242, -52474.50, -41742.86, -16186.24, -51912.28, -85518.71, -179273.97, -3185.59, -99791.73, 0.388, 0.888, 0.248, 14:41:10.244
243, -54271.84, -40982.79, -20599.88, -53732.74, -85515.98, -179182.94, -9675.38, -99897.59, 0.000, 0.000, 0.000, 14:41:10.244
244, -51866.73, -42399.07, -22953.54, -49655.72, -85646.88, -179233.69, -11968.96, -100118.13, 0.000, 0.000, 0.000, 14:41:10.244
245, -49409.45, -43088.26, -18003.10, -45575.12, -85617.33, -179277.50, -4624.73, -99951.92, 0.000, 0.000, 0.000, 14:41:10.244
246, -52162.44, -42045.80, -16899.30, -51465.16, -85515.54, -179179.27, -3519.66, -99797.38, 0.000, 0.000, 0.000, 14:41:10.244
247, -54265.59, -41076.16, -20729.86, -53751.61, -85482.55, -179075.67, -9443.54, -99847.48, 0.000, 0.000, 0.000, 14:41:10.244
248, -52806.80, -42167.39, -24315.21, -51245.38, -85609.70, -179098.58, -13587.63, -100097.97, 0.000, 0.000, 0.000, 14:41:10.244
249, -49597.98, -43262.00, -19911.31, -45574.20, -85614.82, -179166.48, -6812.23, -99987.17, 0.000, 0.000, 0.000, 14:41:10.244
250, -51798.31, -42368.31, -17685.26, -50834.73, -85512.63, -179083.17, -3983.21, -99806.91, 0.000, 0.000, 0.000, 14:41:10.244
251, -54125.86, -41272.59, -20808.80, -53625.41, -85457.00, -178973.27, -9081.40, -99808.52, 0.000, 0.000, 0.000, 14:41:10.244
252, -53602.32, -41964.26, -25251.59, -52527.80, -85565.91, -178963.86, -14651.19, -100060.28, 0.384, 0.896, 0.250, 14:41:10.244
253, -50123.61, -43391.53, -21914.48, -46425.13, -85607.05, -179046.34, -9173.98, -100018.55, 0.000, 0.000, 0.000, 14:41:10.244
254, -51488.36, -42717.76, -18676.38, -50218.80, -85506.98, -178982.64, -4746.42, -99815.82, 0.000, 0.000, 0.000, 14:41:10.244
255, -53949.87, -41562.38, -21071.03, -53460.50, -85437.06, -178872.59, -8888.13, -99778.66, 0.000, 0.000, 0.000, 14:41:10.244
0, -54240.21, -41823.82, -26010.28, -53457.57, -85522.78, -178837.22, -15460.92, -100013.19, 0.000, 0.000, 0.000, 14:41:10.245
1, -50681.59, -43468.98, -24038.43, -47392.04, -85599.89, -178926.36, -11774.38, -100051.99, 0.000, 0.000, 0.000, 14:41:10.245
2, -51144.01, -43093.69, -19821.35, -49442.48, -85507.87, -178888.16, -5815.88, -99836.05, 0.000, 0.000, 0.000, 14:41:10.245
3, -53694.27, -41923.51, -21370.03, -53208.71, -85423.83, -178775.33, -8747.67, -99761.66, 0.000, 0.000, 0.000, 14:41:10.245
4, -54648.65, -41778.43, -26354.29, -54023.56, -85477.16, -178714.23, -15663.39, -99956.62, 0.000, 0.000, 0.000, 14:41:10.245
5, -51390.37, -43487.75, -25980.79, -48892.41, -85583.69, -178798.02, -14142.55, -100072.83, 0.000, 0.000, 0.000, 14:41:10.245
6, -50897.67, -43477.27, -21151.39, -48947.32, -85509.41, -178791.42, -7173.81, -99860.02, 0.384, 0.898, 0.256, 14:41:10.245
7, -53440.72, -42332.32, -21820.40, -52951.26, -85417.95, -178682.20, -8790.36, -99756.10, 0.000, 0.000, 0.000, 14:41:10.245
8, -54924.76, -41828.32, -26602.64, -54363.33, -85435.78, -178598.97, -15719.83, -99898.73, 0.000, 0.000, 0.000, 14:41:10.245
9, -52159.07, -43447.39, -27836.17, -50266.59, -85561.05, -178667.23, -16444.16, -100082.34, 0.000, 0.000, 0.000, 14:41:10.245
10, -50664.92, -43855.60, -22691.49, -48413.95, -85510.53, -178691.55, -8860.66, -99890.13, 0.000, 0.000, 0.000, 14:41:10.245
11, -53126.61, -42768.72, -22327.20, -52602.88, -85413.79, -178588.44, -8905.36, -99757.87, 0.000, 0.000, 0.000, 14:41:10.245
12, -54982.63, -41986.45, -26594.22, -54451.35, -85401.92, -178492.83, -15411.01, -99847.92, 0.000, 0.000, 0.000, 14:41:10.245
13, -52972.43, -43365.73, -29259.82, -51660.51, -85531.90, -178535.27, -18224.94, -100076.83, 0.000, 0.000, 0.000, 14:41:10.245
14, -50612.93, -44196.91, -24353.83, -48505.36, -85510.44, -178586.05, -10774.01, -99922.76, 0.000, 0.000, 0.000, 14:41:10.245
15, -52807.94, -43221.19, -22941.52, -52224.76, -85410.35, -178493.50, -9174.56, -99763.48, 0.000, 0.000, 0.000, 14:41:10.245
16, -54934.64, -42254.96, -26600.05, -54423.61, -85369.55, -178386.27, -15017.40, -99798.66, 0.386, 0.892, 0.254, 14:41:10.245
17, -53760.48, -43292.00, -30425.55, -52732.93, -85493.32, -178400.86, -19633.32, -100051.84, 0.000, 0.000, 0.000, 14:41:10.245
18, -50681.21, -44520.25, -26161.13, -48506.91, -85507.55, -178474.09, -12899.68, -99957.87, 0.000, 0.000, 0.000, 14:41:10.246
19, -52420.58, -43704.36, -23586.68, -51704.21, -85402.70, -178392.75, -9480.29, -99768.57, 0.000, 0.000, 0.000, 14:41:10.246
20, -54739.13, -42612.75, -26501.59, -54240.51, -85341.91, -178281.48, -14393.29, -99758.45, 0.000, 0.000, 0.000, 14:41:10.246
21, -54427.23, -43230.30, -31076.52, -53629.66, -85446.18, -178265.39, -20303.47, -100008.20, 0.000, 0.000, 0.000, 14:41:10.246
22, -50989.89, -44756.44, -27964.56, -49086.35, -85499.33, -178353.66, -15076.05, -99989.16, 0.000, 0.000, 0.000, 14:41:10.246
23, -52059.69, -44176.72, -24368.50, -51224.96, -85402.37, -178298.05, -10075.29, -99783.70, 0.000, 0.000, 0.000, 14:41:10.246
24, -54509.27, -43036.41, -26497.86, -54018.80, -85328.25, -178186.78, -13911.59, -99736.19, 0.000, 0.000, 0.000, 14:41:10.246
25, -54967.99, -43215.40, -31432.72, -54297.79, -85402.52, -178140.36, -20637.50, -99958.30, 0.000, 0.000, 0.000, 14:41:10.246
26, -51461.78, -44918.60, -29739.15, -49671.30, -85489.48, -178231.11, -17280.67, -100019.38, 0.386, 0.898, 0.254, 14:41:10.246
27, -51662.84, -44650.45, -25194.60, -50606.18, -85399.35, -178199.20, -10762.43, -99801.02, 0.000, 0.000, 0.000, 14:41:10.246
28, -54204.34, -43502.15, -26435.23, -53714.23, -85316.41, -178090.25, -13312.90, -99722.28, 0.000, 0.000, 0.000, 14:41:10.246
29, -55299.20, -43279.88, -31326.77, -54701.60, -85361.22, -178023.14, -20293.08, -99905.27, 0.000, 0.000, 0.000, 14:41:10.246
30, -52112.58, -44994.89, -31248.07, -50613.31, -85472.38, -178102.30, -19165.59, -100038.98, 0.000, 0.000, 0.000, 14:41:10.246
31, -51352.89, -45097.75, -26146.91, -50115.85, -85400.91, -178101.28, -11677.78, -99827.38, 0.000, 0.000, 0.000, 14:41:10.246
32, -53877.49, -43973.97, -26445.22, -53383.12, -85307.69, -177992.97, -12799.93, -99716.31, 0.000, 0.000, 0.000, 14:41:10.246
33, -55462.75, -43401.18, -31022.01, -54902.72, -85319.66, -177907.50, -19657.51, -99847.63, 0.000, 0.000, 0.000, 14:41:10.246
34, -52840.35, -44978.61, -32515.21, -51522.76, -85447.05, -177968.78, -20754.51, -100044.93, 0.000, 0.000, 0.000, 14:41:10.246
35, -51073.80, -45498.41, -27174.78, -49512.89, -85400.70, -177997.80, -12692.37, -99858.67, 0.000, 0.000, 0.000, 14:41:10.246
36, -53494.41, -44433.61, -26387.17, -52977.75, -85303.10, -177896.77, -12125.13, -99719.22, 0.000, 0.000, 0.000, 14:41:10.246
37, -55430.74, -43594.10, -30411.47, -54897.80, -85285.02, -177798.63, -18504.67, -99796.31, 0.384, 0.900, 0.254, 14:41:10.247
38, -53611.98, -44887.53, -33287.54, -52566.00, -85417.05, -177835.97, -21728.58, -100036.44, 0.000, 0.000, 0.000, 14:41:10.247
39, -51029.07, -45815.11, -28328.22, -49440.07, -85403.09, -177891.88, -14067.76, -99895.02, 0.000, 0.000, 0.000, 14:41:10.247
40, -53126.16, -44869.14, -26483.66, -52556.79, -85301.25, -177801.19, -11830.49, -99727.71, 0.000, 0.000, 0.000, 14:41:10.247
41, -55302.53, -43854.93, -29854.08, -54788.68, -85258.47, -177695.80, -17486.57, -99754.58, 0.000, 0.000, 0.000, 14:41:10.247
42, -54337.76, -44776.27, -33801.11, -53447.71, -85378.74, -177702.44, -22466.21, -100009.95, 0.000, 0.000, 0.000, 14:41:10.247
43, -51108.65, -46077.32, -29622.03, -49364.50, -85400.85, -177778.61, -15736.10, -99932.55, 0.000, 0.000, 0.000, 14:41:10.247
44, -52696.58, -45309.06, -26621.08, -52011.75, -85295.86, -177701.80, -11664.53, -99737.03, 0.000, 0.000, 0.000, 14:41:10.247
45, -55055.16, -44198.72, -29240.66, -54552.71, -85231.36, -177590.14, -16340.69, -99716.98, 0.000, 0.000, 0.000, 14:41:10.247
46, -54941.91, -44694.08, -33852.54, -54200.50, -85328.67, -177565.52, -22570.43, -99961.76, 0.000, 0.000, 0.000, 14:41:10.247
47, -51431.63, -46263.71, -30937.03, -49789.05, -85387.10, -177651.91, -17526.14, -99959.50, 0.386, 0.902, 0.254, 14:41:10.247
48, -52297.92, -45745.08, -26937.96, -51490.06, -85291.82, -177602.84, -11842.38, -99750.38, 0.000, 0.000, 0.000, 14:41:10.247
49, -54771.20, -44591.15, -28759.34, -54275.42, -85212.24, -177489.00, -15382.81, -99691.82, 0.000, 0.000, 0.000, 14:41:10.247
50, -55404.95, -44654.40, -33653.77, -54757.17, -85283.86, -177440.91, -22333.84, -99909.68, 0.000, 0.000, 0.000, 14:41:10.247
51, -51929.02, -46360.91, -32254.10, -50312.70, -85378.23, -177530.33, -19349.14, -99990.95, 0.000, 0.000, 0.000, 14:41:10.247
52, -51888.25, -46171.15, -27394.34, -50841.28, -85290.95, -177505.59, -12237.16, -99771.63, 0.000, 0.000, 0.000, 14:41:10.247
53, -54448.91, -45014.47, -28345.56, -53953.82, -85202.77, -177394.19, -14481.81, -99681.60, 0.000, 0.000, 0.000, 14:41:10.247
54, -55682.48, -44686.50, -33156.66, -55095.75, -85240.19, -177322.75, -21645.18, -99852.97, 0.000, 0.000, 0.000, 14:41:10.247
55, -52609.99, -46373.41, -33429.56, -51303.27, -85356.88, -177398.92, -21035.94, -100004.83, 0.000, 0.000, 0.000, 14:41:10.247
56, -51606.64, -46570.35, -28160.34, -50445.74, -85289.98, -177405.52, -13148.01, -99796.73, 0.000, 0.000, 0.000, 14:41:10.248
57, -54134.36, -45452.83, -28178.87, -53634.98, -85200.00, -177303.50, -13938.23, -99682.88, 0.386, 0.906, 0.258, 14:41:10.248
58, -55825.80, -44803.98, -32644.81, -55270.23, -85206.39, -177216.97, -20920.52, -99802.62, 0.000, 0.000, 0.000, 14:41:10.248
59, -53380.99, -46321.11, -34501.23, -52240.25, -85334.64, -177271.59, -22638.61, -100011.52, 0.000, 0.000, 0.000, 14:41:10.248
60, -51386.12, -46945.59, -29148.17, -50000.87, -85294.61, -177307.73, -14412.16, -99833.64, 0.000, 0.000, 0.000, 14:41:10.248
61, -53761.24, -45903.87, -28093.15, -53239.08, -85193.78, -177207.47, -13430.07, -99685.05, 0.000, 0.000, 0.000, 14:41:10.248
62, -55780.36, -45020.86, -32012.84, -55250.25, -85167.95, -177106.36, -19865.16, -99747.47, 0.000, 0.000, 0.000, 14:41:10.248
63, -54165.09, -46237.80, -35230.68, -53237.94, -85299.23, -177137.38, -23714.33, -99995.04, 0.000, 0.000, 0.000, 14:41:10.248
64, -51382.46, -47271.95, -30382.86, -50017.01, -85291.93, -177198.09, -16069.14, -99866.45, 0.000, 0.000, 0.000, 14:41:10.248
65, -53393.89, -46356.89, -28242.50, -52825.64, -85188.51, -177110.72, -13382.97, -99691.05, 0.000, 0.000, 0.000, 14:41:10.248
66, -55637.29, -45320.82, -31488.82, -55126.02, -85140.01, -177004.13, -19037.45, -99705.09, 0.000, 0.000, 0.000, 14:41:10.248
67, -54891.64, -46143.97, -35711.18, -54093.14, -85256.44, -177003.91, -24576.88, -99960.84, 0.384, 0.904, 0.256, 14:41:10.248
68, -51532.75, -47539.79, -31788.74, -50102.57, -85291.39, -177087.91, -18053.41, -99905.73, 0.000, 0.000, 0.000, 14:41:10.248
69, -52980.65, -46820.33, -28511.10, -52325.92, -85189.16, -177019.19, -13448.96, -99706.34, 0.000, 0.000, 0.000, 14:41:10.248
70, -55403.56, -45696.15, -31015.62, -54903.91, -85120.16, -176907.02, -18052.14, -99675.21, 0.000, 0.000, 0.000, 14:41:10.248
71, -55500.88, -46088.65, -35841.47, -54822.25, -85212.65, -176877.33, -24732.81, -99915.96, 0.000, 0.000, 0.000, 14:41:10.248
72, -51957.25, -47730.47, -33322.79, -50773.48, -85282.48, -176967.67, -20125.49, -99937.02, 0.000, 0.000, 0.000, 14:41:10.248
73, -52631.70, -47285.18, -29119.34, -51940.38, -85187.23, -176924.11, -14034.03, -99722.53, 0.000, 0.000, 0.000, 14:41:10.248
74, -55156.59, -46131.65, -30832.13, -54658.89, -85106.74, -176812.81, -17510.06, -99656.66, 0.000, 0.000, 0.000, 14:41:10.720
75, -55969.39, -46108.12, -35864.49, -55354.23, -85166.11, -176754.73, -24865.11, -99859.61, 0.000, 0.000, 0.000, 14:41:10.720
76, -52547.38, -47868.25, -34957.25, -51508.59, -85266.05, -176840.89, -22500.23, -99959.01, 0.000, 0.000, 0.000, 14:41:10.720
77, -52279.03, -47786.82, -30001.11, -51538.11, -85184.48, -176826.16, -15037.87, -99741.95, 0.380, 0.904, 0.252, 14:41:10.720
78, -54869.57, -46634.48, -30836.33, -54377.52, -85095.28, -176717.16, -17115.80, -99644.84, 0.000, 0.000, 0.000, 14:41:10.720
79, -56245.50, -46240.44, -35729.69, -55670.68, -85123.33, -176640.08, -24617.90, -99801.50, 0.000, 0.000, 0.000, 14:41:10.720
80, -53303.01, -47945.77, -36513.00, -52458.02, -85247.07, -176714.52, -24737.77, -99972.71, 0.000, 0.000, 0.000, 14:41:10.720
81, -52046.91, -48286.07, -31212.87, -51340.12, -85189.47, -176732.69, -16580.68, -99773.52, 0.000, 0.000, 0.000, 14:41:10.720
82, -54578.49, -47171.25, -31078.69, -54085.70, -85094.95, -176629.78, -17071.30, -99648.61, 0.000, 0.000, 0.000, 14:41:10.720
83, -56375.97, -46474.08, -35574.92, -55832.11, -85090.30, -176536.78, -24245.03, -99750.71, 0.000, 0.000, 0.000, 14:41:10.720
84, -54117.48, -47970.33, -37913.18, -53354.37, -85217.92, -176583.17, -26670.97, -99969.29, 0.000, 0.000, 0.000, 14:41:10.720
85, -51910.49, -48763.64, -32687.79, -51219.33, -85186.85, -176627.64, -18412.67, -99803.40, 0.000, 0.000, 0.000, 14:41:10.720
86, -54232.46, -47739.52, -31454.11, -53732.30, -85087.26, -176532.75, -17113.52, -99649.59, 0.000, 0.000, 0.000, 14:41:10.720
87, -56328.47, -46815.53, -35333.61, -55804.19, -85059.20, -176434.30, -23616.05, -99702.92, 0.382, 0.902, 0.248, 14:41:10.720
88, -54920.02, -47972.61, -38878.76, -54207.80, -85184.51, -176454.28, -28070.68, -99951.66, 0.000, 0.000, 0.000, 14:41:10.720
89, -51963.33, -49177.68, -34273.89, -51305.23, -85187.44, -176521.42, -20515.17, -99840.08, 0.000, 0.000, 0.000, 14:41:10.721
90, -53873.25, -48330.32, -31925.46, -53373.75, -85086.65, -176441.22, -17341.58, -99660.68, 0.000, 0.000, 0.000, 14:41:10.721
91, -56167.29, -47258.45, -35083.70, -55659.20, -85034.73, -176335.50, -22931.97, -99664.68, 0.000, 0.000, 0.000, 14:41:10.721
92, -55633.98, -47995.39, -39423.18, -54957.19, -85144.43, -176326.09, -28935.40, -99917.16, 0.000, 0.000, 0.000, 14:41:10.721
93, -52194.61, -49515.48, -35854.12, -51508.95, -85185.55, -176409.66, -22775.29, -99878.14, 0.000, 0.000, 0.000, 14:41:10.721
94, -53470.22, -48968.63, -32400.17, -52960.13, -85082.59, -176345.11, -17747.82, -99671.99, 0.000, 0.000, 0.000, 14:41:10.722
95, -55935.82, -47788.79, -34799.96, -55430.52, -85012.31, -176234.95, -22271.43, -99632.98, 0.000, 0.000, 0.000, 14:41:10.722
96, -56217.92, -48065.66, -39576.80, -55573.39, -85097.54, -176198.75, -29360.54, -99866.38, 0.000, 0.000, 0.000, 14:41:10.722
97, -52655.54, -49646.91, -37385.82, -51948.65, -85176.02, -176289.08, -25212.54, -99908.31, 0.382, 0.900, 0.246, 14:41:10.722
98, -53102.85, -49529.09, -33062.72, -52582.84, -85082.70, -176251.72, -18595.20, -99690.66, 0.000, 0.000, 0.000, 14:41:10.722
99, -55649.45, -48391.32, -34625.78, -55148.68, -85000.82, -176142.27, -21775.65, -99617.72, 0.000, 0.000, 0.000, 14:41:10.722
100, -56607.31, -48228.52, -39493.72, -56002.72, -85055.34, -176082.16, -29260.64, -99812.77, 0.000, 0.000, 0.000, 14:41:10.722
101, -53266.44, -49685.78, -38849.05, -52542.58, -85159.56, -176163.34, -27411.89, -99929.30, 0.000, 0.000, 0.000, 14:41:10.722
102, -52740.75, -49919.25, -33856.99, -52202.43, -85082.29, -176156.02, -19507.89, -99714.15, 0.000, 0.000, 0.000, 14:41:10.722
103, -55340.28, -49043.79, -34508.70, -54842.35, -84992.10, -176049.00, -21243.57, -99610.08, 0.000, 0.000, 0.000, 14:41:10.722
104, -56840.06, -48495.82, -39210.73, -56268.84, -85011.98, -175968.03, -28839.18, -99753.26, 0.000, 0.000, 0.000, 14:41:10.722
105, -54037.46, -49717.18, -40167.65, -53306.14, -85139.45, -176037.39, -29526.25, -99940.37, 0.000, 0.000, 0.000, 14:41:10.722
106, -52536.01, -50116.79, -34967.56, -51963.89, -85087.81, -176062.45, -21104.76, -99747.36, 0.000, 0.000, 0.000, 14:41:10.722
107, -55024.79, -49654.38, -34630.07, -54522.74, -84989.76, -175959.55, -21172.24, -99613.07, 0.382, 0.896, 0.254, 14:41:10.722
108, -56899.52, -48893.81, -38893.87, -56354.45, -84979.01, -175865.48, -28325.54, -99702.45, 0.000, 0.000, 0.000, 14:41:10.722
109, -54843.09, -49766.00, -41276.92, -54119.29, -85112.40, -175910.80, -31306.21, -99936.26, 0.000, 0.000, 0.000, 14:41:10.722
110, -52410.66, -50210.55, -36259.51, -51803.70, -85088.95, -175961.17, -22897.53, -99782.07, 0.000, 0.000, 0.000, 14:41:10.723
111, -54656.47, -50047.32, -34816.46, -54153.18, -84986.41, -175867.52, -21048.99, -99618.77, 0.000, 0.000, 0.000, 14:41:10.723
112, -56812.68, -49393.89, -38499.58, -56286.65, -84950.35, -175766.02, -27514.30, -99657.24, 0.000, 0.000, 0.000, 14:41:10.723
113, -55623.84, -49835.87, -42030.55, -54920.89, -85074.91, -175780.86, -32523.13, -99911.65, 0.000, 0.000, 0.000, 14:41:10.723
114, -52506.35, -50287.49, -37684.97, -51860.25, -85089.20, -175855.05, -25057.24, -99819.24, 0.000, 0.000, 0.000, 14:41:10.723
115, -54281.21, -50225.29, -35154.09, -53773.69, -84986.52, -175777.69, -21311.25, -99631.20, 0.000, 0.000, 0.000, 14:41:10.723
116, -56615.89, -49867.37, -38132.61, -56100.95, -84927.10, -175668.88, -26754.28, -99620.98, 0.000, 0.000, 0.000, 14:41:10.723
117, -56291.50, -49965.91, -42442.50, -55619.79, -85030.70, -175651.83, -33176.58, -99870.20, 0.382, 0.900, 0.250, 14:41:10.723
118, -52769.14, -50358.41, -39166.29, -52085.69, -85084.51, -175741.08, -27245.99, -99854.70, 0.000, 0.000, 0.000, 14:41:10.723
119, -53854.45, -50323.63, -35540.88, -53341.34, -84986.67, -175686.66, -21554.77, -99647.56, 0.000, 0.000, 0.000, 14:41:10.723
120, -56353.93, -50189.70, -37761.13, -55844.65, -84913.58, -175577.38, -25813.11, -99599.46, 0.000, 0.000, 0.000, 14:41:10.723
121, -56814.29, -50167.89, -42496.23, -56180.59, -84990.23, -175533.41, -33151.91, -99823.45, 0.000, 0.000, 0.000, 14:41:10.723
122, -53272.99, -50427.52, -40648.25, -52561.76, -85076.23, -175622.67, -29444.55, -99885.52, 0.000, 0.000, 0.000, 14:41:10.723
123, -53490.32, -50408.41, -36195.00, -52961.54, -84986.00, -175592.73, -22290.88, -99666.67, 0.000, 0.000, 0.000, 14:41:10.723
124, -56061.66, -50338.00, -37588.44, -55554.03, -84899.57, -175481.66, -25204.65, -99583.03, 0.000, 0.000, 0.000, 14:41:10.723
125, -57172.88, -50353.32, -42395.11, -56572.71, -84944.63, -175415.09, -32927.76, -99764.82, 0.000, 0.000, 0.000, 14:41:10.723
126, -53922.35, -50498.87, -42117.21, -53196.59, -85060.16, -175498.36, -31655.48, -99905.70, 0.000, 0.000, 0.000, 14:41:10.723
127, -53133.76, -50493.73, -37035.23, -52585.65, -84987.45, -175498.34, -23346.93, -99693.23, 0.386, 0.904, 0.248, 14:41:10.723
128, -55729.58, -50424.53, -37493.66, -55226.11, -84892.91, -175390.16, -24658.71, -99578.90, 0.000, 0.000, 0.000, 14:41:10.724
129, -57332.87, -50416.95, -42055.63, -56767.33, -84904.08, -175304.97, -32258.48, -99708.02, 0.000, 0.000, 0.000, 14:41:10.724
130, -54698.45, -50555.44, -43362.54, -53973.16, -85035.29, -175369.34, -33534.68, -99910.28, 0.000, 0.000, 0.000, 14:41:10.724
131, -52947.50, -50578.80, -38163.28, -52371.90, -84989.71, -175400.88, -24868.84, -99724.77, 0.000, 0.000, 0.000, 14:41:10.724
132, -55398.21, -50511.61, -37632.38, -54895.97, -84889.62, -175299.50, -24465.66, -99582.31, 0.000, 0.000, 0.000, 14:41:10.724
133, -57356.34, -50484.57, -41726.53, -56815.88, -84873.41, -175204.75, -31614.73, -99659.52, 0.000, 0.000, 0.000, 14:41:10.724
134, -55502.35, -50611.95, -44423.78, -54790.43, -85007.68, -175244.53, -35197.11, -99903.31, 0.000, 0.000, 0.000, 14:41:10.724
135, -52864.96, -50665.28, -39474.50, -52256.92, -84994.52, -175303.09, -26767.51, -99764.48, 0.000, 0.000, 0.000, 14:41:10.724
136, -55014.46, -50603.18, -37812.09, -54515.95, -84892.21, -175214.11, -24374.93, -99595.08, 0.000, 0.000, 0.000, 14:41:10.724
137, -57222.05, -50556.76, -41275.38, -56701.55, -84848.67, -175109.44, -30693.84, -99619.30, 0.392, 0.908, 0.246, 14:41:10.724
138, -56254.29, -50658.80, -45041.82, -55566.41, -84968.50, -175115.81, -36183.58, -99874.38, 0.000, 0.000, 0.000, 14:41:10.724
139, -53019.18, -50744.00, -40915.70, -52373.64, -84994.02, -175196.00, -28964.08, -99801.34, 0.000, 0.000, 0.000, 14:41:10.724
140, -54645.48, -50692.73, -38190.10, -54142.79, -84894.31, -175126.94, -24702.50, -99609.92, 0.000, 0.000, 0.000, 14:41:10.725
141, -57034.09, -50637.68, -40970.97, -56523.34, -84833.49, -175020.59, -30001.63, -99591.73, 0.000, 0.000, 0.000, 14:41:10.725
142, -56916.08, -50709.63, -45457.48, -56260.95, -84929.05, -174995.00, -36865.09, -99834.48, 0.000, 0.000, 0.000, 14:41:10.725
143, -53350.62, -50819.46, -42498.15, -52672.24, -84990.25, -175084.34, -31384.78, -99837.30, 0.000, 0.000, 0.000, 14:41:10.725
144, -54232.39, -50777.15, -38701.42, -53723.69, -84891.70, -175034.42, -25224.66, -99623.98, 0.000, 0.000, 0.000, 14:41:10.725
145, -56758.70, -50712.82, -40706.97, -56255.54, -84813.53, -174923.67, -29273.21, -99564.77, 0.000, 0.000, 0.000, 14:41:10.725
146, -57399.12, -50757.99, -45487.45, -56781.61, -84883.79, -174875.44, -36938.78, -99780.55, 0.000, 0.000, 0.000, 14:41:10.725
147, -53909.12, -50887.57, -44054.77, -53207.79, -84979.25, -174965.36, -33798.30, -99864.22, 0.380, 0.906, 0.246, 14:41:10.725
148, -53888.13, -50864.90, -39462.05, -53362.08, -84893.51, -174944.28, -26227.18, -99645.33, 0.000, 0.000, 0.000, 14:41:10.725
149, -56474.00, -50798.34, -40640.21, -55971.43, -84806.13, -174835.47, -28893.07, -99554.58, 0.000, 0.000, 0.000, 14:41:10.725
150, -57720.07, -50810.68, -45372.83, -57135.01, -84840.83, -174762.61, -36843.59, -99721.68, 0.000, 0.000, 0.000, 14:41:10.725
151, -54605.31, -50948.03, -45580.95, -53889.09, -84960.23, -174841.17, -36245.74, -99878.55, 0.000, 0.000, 0.000, 14:41:10.726
152, -53571.65, -50951.31, -40426.50, -53023.45, -84895.92, -174852.30, -27628.79, -99673.04, 0.000, 0.000, 0.000, 14:41:10.726
153, -56150.11, -50883.07, -40655.74, -55652.20, -84799.92, -174746.14, -28589.62, -99550.93, 0.000, 0.000, 0.000, 14:41:10.729
154, -57862.05, -50872.10, -45059.04, -57310.41, -84805.35, -174660.30, -36334.70, -99667.88, 0.000, 0.000, 0.000, 14:41:10.729
155, -55413.23, -51005.43, -46889.82, -54700.66, -84936.11, -174716.97, -38321.21, -99880.35, 0.000, 0.000, 0.000, 14:41:10.729
156, -53430.55, -51036.41, -41669.13, -52853.69, -84898.38, -174756.38, -29533.20, -99704.69, 0.000, 0.000, 0.000, 14:41:10.729
157, -55832.27, -50973.17, -40887.39, -55335.03, -84799.86, -174660.69, -28734.44, -99557.33, 0.000, 0.000, 0.000, 14:41:10.729
158, -57864.62, -50940.83, -44750.58, -57336.31, -84775.41, -174563.08, -35976.67, -99619.64, 0.384, 0.898, 0.252, 14:41:10.729
159, -56232.23, -51058.07, -48002.49, -55535.63, -84903.23, -174590.56, -40280.46, -99865.11, 0.000, 0.000, 0.000, 14:41:10.729
160, -53407.39, -51119.89, -43142.53, -52793.86, -84900.17, -174656.22, -31664.62, -99741.68, 0.000, 0.000, 0.000, 14:41:10.729
161, -55459.06, -51061.04, -41188.63, -54961.17, -84798.54, -174572.75, -28790.97, -99566.24, 0.000, 0.000, 0.000, 14:41:10.729
162, -57727.76, -51010.59, -44380.10, -57215.64, -84747.40, -174465.58, -35152.16, -99576.13, 0.000, 0.000, 0.000, 14:41:10.729
163, -56988.32, -51107.89, -48686.12, -56318.59, -84864.52, -174466.13, -41352.71, -99833.33, 0.000, 0.000, 0.000, 14:41:10.729
164, -53628.00, -51199.46, -44791.71, -52978.35, -84899.25, -174549.70, -34087.79, -99778.32, 0.000, 0.000, 0.000, 14:41:10.729
165, -55091.97, -51149.26, -41666.49, -54587.14, -84798.18, -174484.34, -29270.48, -99579.08, 0.000, 0.000, 0.000, 14:41:10.729
166, -57514.48, -51090.32, -44116.06, -57006.11, -84730.01, -174374.83, -34545.00, -99547.34, 0.000, 0.000, 0.000, 14:41:10.729
167, -57605.65, -51160.93, -48940.98, -56966.64, -84824.46, -174347.69, -42039.85, -99790.68, 0.000, 0.000, 0.000, 14:41:10.729
168, -54014.48, -51277.79, -46470.35, -53334.57, -84896.86, -174439.83, -36705.21, -99815.82, 0.380, 0.904, 0.232, 14:41:10.729
169, -54676.86, -51241.08, -42152.55, -54167.02, -84802.16, -174398.56, -29899.68, -99600.35, 0.000, 0.000, 0.000, 14:41:10.729
170, -57235.55, -51178.27, -43827.72, -56738.20, -84722.97, -174290.22, -33829.48, -99534.20, 0.000, 0.000, 0.000, 14:41:10.729
171, -58050.63, -51216.65, -48721.10, -57449.21, -84785.20, -174236.11, -42035.96, -99740.68, 0.000, 0.000, 0.000, 14:41:10.730
172, -54603.59, -51346.80, -47917.89, -53903.40, -84885.82, -174321.97, -39245.01, -99842.18, 0.000, 0.000, 0.000, 14:41:10.730
173, -54319.36, -51328.07, -42859.40, -53791.06, -84802.70, -174307.34, -30966.13, -99622.15, 0.000, 0.000, 0.000, 14:41:10.730
174, -56926.02, -51263.75, -43646.59, -56427.31, -84714.72, -174201.59, -33397.84, -99525.25, 0.000, 0.000, 0.000, 14:41:10.730
175, -58299.50, -51270.50, -48312.00, -57729.37, -84741.52, -174124.98, -41746.04, -99681.27, 0.000, 0.000, 0.000, 14:41:10.730
176, -55318.15, -51406.37, -49068.00, -54611.16, -84863.52, -174196.64, -41641.88, -99852.77, 0.000, 0.000, 0.000, 14:41:10.730
177, -54020.63, -51414.17, -43907.95, -53469.08, -84803.23, -174213.45, -32409.38, -99649.37, 0.000, 0.000, 0.000, 14:41:10.730
178, -56577.72, -51348.35, -43671.39, -56083.39, -84707.09, -174110.78, -33054.88, -99521.25, 0.386, 0.900, 0.254, 14:41:10.730
179, -58383.54, -51331.63, -47883.00, -57843.68, -84703.45, -174020.42, -41077.41, -99624.34, 0.000, 0.000, 0.000, 14:41:10.730
180, -56110.90, -51464.60, -49891.86, -55410.24, -84837.32, -174072.16, -43619.52, -99851.66, 0.000, 0.000, 0.000, 14:41:10.730
